SpectraSuite Data File
++++++++++++++++++++++++++++++++++++
Date: Thu Nov 16 14:08:01 EST 2017
User: cheriyan
Dark Spectrum Present: No
Reference Spectrum Present: No
Number of Sampled Component Spectra: 1
Spectrometers: USB2+H05261
Integration Time (usec): 100000 (USB2+H05261)
Spectra Averaged: 1 (USB2+H05261)
Boxcar Smoothing: 1 (USB2+H05261)
Correct for Electrical Dark: No (USB2+H05261)
Strobe/Lamp Enabled: No (USB2+H05261)
Correct for Detector Non-linearity: No (USB2+H05261)
Correct for Stray Light: No (USB2+H05261)
Number of Pixels in Processed Spectrum: 2048
>>>>>Begin Processed Spectral Data<<<<<
0.00	306.61
1.00	306.61
2.00	285.55
3.00	271.50
4.00	251.22
5.00	263.70
6.00	264.48
7.00	258.24
8.00	254.34
9.00	259.02
10.00	275.40
11.00	245.76
12.00	246.54
13.00	223.13
14.00	256.68
15.00	249.66
16.00	283.20
17.00	291.01
18.00	296.47
19.00	279.30
20.00	266.04
21.00	257.46
22.00	282.42
23.00	325.33
24.00	415.84
25.00	489.95
26.00	550.81
27.00	628.82
28.00	668.61
29.00	695.92
30.00	653.79
31.00	651.45
32.00	665.49
33.00	686.56
34.00	707.62
35.00	687.34
36.00	678.76
37.00	665.49
38.00	664.71
39.00	673.29
40.00	695.92
41.00	741.95
42.00	747.41
43.00	737.27
44.00	748.97
45.00	756.77
46.00	766.14
47.00	759.89
48.00	765.36
49.00	771.60
50.00	759.11
51.00	739.61
52.00	761.45
53.00	784.08
54.00	831.67
55.00	805.14
56.00	770.82
57.00	756.77
58.00	777.84
59.00	824.65
60.00	803.58
61.00	777.06
62.00	737.27
63.00	752.87
64.00	773.94
65.00	808.26
66.00	843.37
67.00	866.78
68.00	851.95
69.00	814.51
70.00	787.20
71.00	763.79
72.00	766.92
73.00	766.92
74.00	795.00
75.00	800.46
76.00	794.22
77.00	800.46
78.00	792.66
79.00	815.29
80.00	816.85
81.00	849.61
82.00	848.83
83.00	855.08
84.00	840.25
85.00	853.52
86.00	860.54
87.00	873.02
88.00	901.11
89.00	919.05
90.00	955.72
91.00	935.43
92.00	911.25
93.00	889.40
94.00	902.67
95.00	932.31
96.00	933.09
97.00	929.19
98.00	933.87
99.00	933.09
100.00	915.15
101.00	891.74
102.00	904.23
103.00	947.92
104.00	951.82
105.00	941.68
106.00	931.53
107.00	917.49
108.00	919.05
109.00	911.25
110.00	936.99
111.00	975.22
112.00	990.83
113.00	1006.43
114.00	977.56
115.00	947.92
116.00	968.98
117.00	976.00
118.00	992.39
119.00	990.05
120.00	1016.57
121.00	1004.09
122.00	986.93
123.00	963.52
124.00	1012.67
125.00	1039.98
126.00	1044.66
127.00	1051.68
128.00	1028.28
129.00	1046.22
130.00	1035.30
131.00	1068.06
132.00	1082.89
133.00	1078.99
134.00	1067.28
135.00	1055.58
136.00	1087.57
137.00	1138.28
138.00	1146.08
139.00	1125.80
140.00	1096.15
141.00	1110.97
142.00	1125.80
143.00	1149.20
144.00	1150.76
145.00	1158.57
146.00	1135.94
147.00	1122.68
148.00	1147.64
149.00	1188.99
150.00	1208.50
151.00	1188.21
152.00	1144.52
153.00	1151.54
154.00	1182.75
155.00	1210.06
156.00	1237.36
157.00	1256.87
158.00	1273.25
159.00	1271.69
160.00	1233.46
161.00	1241.26
162.00	1269.35
163.00	1270.13
164.00	1267.01
165.00	1226.44
166.00	1262.33
167.00	1302.12
168.00	1371.55
169.00	1345.03
170.00	1336.45
171.00	1295.10
172.00	1330.20
173.00	1327.08
174.00	1304.46
175.00	1328.64
176.00	1341.13
177.00	1387.16
178.00	1386.38
179.00	1380.92
180.00	1394.18
181.00	1364.53
182.00	1360.63
183.00	1360.63
184.00	1380.92
185.00	1402.76
186.00	1412.12
187.00	1432.41
188.00	1441.77
189.00	1419.92
190.00	1434.75
191.00	1458.93
192.00	1481.56
193.00	1461.27
194.00	1463.62
195.00	1457.37
196.00	1471.42
197.00	1450.35
198.00	1487.02
199.00	1524.47
200.00	1554.12
201.00	1568.16
202.00	1548.65
203.00	1547.87
204.00	1528.37
205.00	1605.61
206.00	1590.00
207.00	1617.31
208.00	1549.43
209.00	1561.92
210.00	1572.84
211.00	1628.23
212.00	1613.41
213.00	1614.19
214.00	1607.17
215.00	1685.19
216.00	1699.23
217.00	1678.94
218.00	1665.68
219.00	1694.55
220.00	1724.19
221.00	1721.07
222.00	1724.97
223.00	1739.80
224.00	1761.64
225.00	1755.40
226.00	1740.58
227.00	1763.20
228.00	1748.38
229.00	1760.08
230.00	1752.28
231.00	1788.17
232.00	1794.41
233.00	1815.48
234.00	1825.62
235.00	1844.34
236.00	1827.96
237.00	1843.56
238.00	1884.13
239.00	1888.03
240.00	1895.83
241.00	1887.25
242.00	1955.91
243.00	1949.67
244.00	1960.59
245.00	1910.66
246.00	1967.61
247.00	1985.55
248.00	2040.17
249.00	2020.66
250.00	2040.95
251.00	2054.99
252.00	2043.29
253.00	2044.07
254.00	2069.81
255.00	2126.77
256.00	2151.73
257.00	2146.27
258.00	2156.41
259.00	2133.01
260.00	2177.48
261.00	2171.24
262.00	2210.25
263.00	2168.12
264.00	2157.19
265.00	2158.75
266.00	2206.34
267.00	2280.46
268.00	2296.07
269.00	2297.63
270.00	2304.65
271.00	2283.58
272.00	2284.36
273.00	2287.48
274.00	2333.51
275.00	2358.48
276.00	2363.16
277.00	2394.37
278.00	2422.45
279.00	2418.55
280.00	2431.04
281.00	2429.48
282.00	2422.45
283.00	2417.77
284.00	2416.21
285.00	2429.48
286.00	2455.22
287.00	2438.84
288.00	2451.32
289.00	2454.44
290.00	2515.30
291.00	2546.50
292.00	2536.36
293.00	2496.57
294.00	2476.29
295.00	2524.66
296.00	2581.61
297.00	2624.52
298.00	2641.68
299.00	2632.32
300.00	2627.64
301.00	2583.95
302.00	2616.72
303.00	2616.72
304.00	2658.85
305.00	2641.68
306.00	2686.94
307.00	2669.77
308.00	2654.17
309.00	2625.30
310.00	2633.88
311.00	2651.05
312.00	2666.65
313.00	2674.45
314.00	2705.66
315.00	2704.10
316.00	2750.13
317.00	2730.62
318.00	2715.80
319.00	2717.36
320.00	2762.61
321.00	2783.68
322.00	2758.71
323.00	2740.77
324.00	2811.76
325.00	2830.49
326.00	2849.21
327.00	2851.55
328.00	2896.80
329.00	2901.48
330.00	2890.56
331.00	2859.35
332.00	2885.88
333.00	2910.85
334.00	2931.13
335.00	2969.36
336.00	2978.72
337.00	3028.65
338.00	3030.21
339.00	3084.05
340.00	3121.49
341.00	3117.59
342.00	3119.15
343.00	3114.47
344.00	3145.68
345.00	3175.33
346.00	3205.75
347.00	3251.78
348.00	3227.60
349.00	3210.43
350.00	3209.65
351.00	3188.59
352.00	3194.05
353.00	3204.19
354.00	3265.05
355.00	3278.31
356.00	3256.47
357.00	3276.75
358.00	3332.92
359.00	3374.27
360.00	3378.17
361.00	3410.16
362.00	3418.74
363.00	3460.09
364.00	3424.20
365.00	3435.13
366.00	3382.07
367.00	3385.98
368.00	3414.84
369.00	3471.79
370.00	3481.94
371.00	3428.10
372.00	3410.16
373.00	3442.15
374.00	3495.98
375.00	3584.14
376.00	3612.23
377.00	3619.25
378.00	3612.23
379.00	3602.86
380.00	3680.88
381.00	3719.11
382.00	3812.73
383.00	3853.30
384.00	3840.82
385.00	3858.76
386.00	3842.38
387.00	3879.83
388.00	3808.05
389.00	3846.28
390.00	3897.77
391.00	3960.97
392.00	4014.02
393.00	3983.59
394.00	4038.20
395.00	4002.32
396.00	4064.73
397.00	4133.39
398.00	4209.84
399.00	4274.60
400.00	4223.11
401.00	4238.71
402.00	4198.14
403.00	4225.45
404.00	4263.68
405.00	4293.32
406.00	4358.86
407.00	4322.19
408.00	4290.20
409.00	4290.20
410.00	4262.90
411.00	4333.89
412.00	4309.71
413.00	4369.00
414.00	4393.97
415.00	4399.43
416.00	4421.27
417.00	4408.01
418.00	4447.02
419.00	4497.73
420.00	4492.27
421.00	4532.84
422.00	4483.69
423.00	4508.65
424.00	4489.15
425.00	4526.60
426.00	4544.54
427.00	4490.71
428.00	4484.47
429.00	4482.13
430.00	4532.84
431.00	4555.46
432.00	4513.33
433.00	4519.57
434.00	4514.89
435.00	4585.89
436.00	4642.84
437.00	4700.58
438.00	4711.50
439.00	4699.80
440.00	4736.46
441.00	4804.34
442.00	4877.68
443.00	4883.14
444.00	4869.09
445.00	4855.83
446.00	4834.77
447.00	4890.94
448.00	4878.46
449.00	4863.63
450.00	4854.27
451.00	4940.87
452.00	4958.03
453.00	4940.87
454.00	4887.82
455.00	4953.35
456.00	5017.33
457.00	5067.26
458.00	5140.60
459.00	5100.03
460.00	5117.19
461.00	5078.18
462.00	5194.43
463.00	5246.70
464.00	5286.49
465.00	5313.02
466.00	5348.90
467.00	5387.13
468.00	5354.37
469.00	5330.96
470.00	5318.48
471.00	5367.63
472.00	5453.45
473.00	5476.85
474.00	5462.03
475.00	5490.90
476.00	5536.93
477.00	5585.30
478.00	5588.42
479.00	5589.98
480.00	5605.58
481.00	5636.01
482.00	5646.93
483.00	5682.04
484.00	5649.27
485.00	5739.77
486.00	5737.43
487.00	5770.98
488.00	5742.89
489.00	5833.40
490.00	5859.14
491.00	5908.29
492.00	5937.94
493.00	5941.06
494.00	5930.14
495.00	5899.71
496.00	5912.19
497.00	5969.93
498.00	6044.04
499.00	6130.64
500.00	6118.94
501.00	6077.59
502.00	6037.80
503.00	6098.66
504.00	6161.07
505.00	6225.04
506.00	6234.41
507.00	6260.93
508.00	6268.73
509.00	6314.77
510.00	6355.33
511.00	6454.42
512.00	6497.33
513.00	6509.03
514.00	6468.46
515.00	6464.56
516.00	6485.62
517.00	6533.22
518.00	6550.38
519.00	6530.87
520.00	6590.95
521.00	6628.40
522.00	6679.11
523.00	6687.69
524.00	6672.87
525.00	6754.01
526.00	6717.34
527.00	6763.37
528.00	6661.94
529.00	6655.70
530.00	6667.41
531.00	6718.12
532.00	6775.07
533.00	6798.48
534.00	6830.46
535.00	6866.35
536.00	6899.90
537.00	6927.21
538.00	6911.60
539.00	6912.38
540.00	6938.13
541.00	6986.50
542.00	6995.08
543.00	7059.84
544.00	7080.12
545.00	7196.37
546.00	7167.50
547.00	7215.87
548.00	7225.23
549.00	7321.20
550.00	7399.99
551.00	7413.26
552.00	7428.86
553.00	7388.29
554.00	7396.87
555.00	7385.95
556.00	7421.06
557.00	7463.97
558.00	7518.58
559.00	7576.31
560.00	7611.42
561.00	7691.00
562.00	7698.02
563.00	7691.00
564.00	7728.45
565.00	7885.26
566.00	8038.96
567.00	8105.28
568.00	8095.91
569.00	8090.45
570.00	8106.06
571.00	8170.81
572.00	8222.30
573.00	8218.40
574.00	8177.05
575.00	8177.83
576.00	8273.01
577.00	8411.89
578.00	8544.52
579.00	8557.78
580.00	8592.11
581.00	8626.43
582.00	8716.16
583.00	8739.56
584.00	8813.68
585.00	8870.63
586.00	8971.27
587.00	8985.32
588.00	8972.83
589.00	9013.40
590.00	9048.51
591.00	9132.77
592.00	9193.62
593.00	9414.41
594.00	9554.85
595.00	9667.19
596.00	9625.06
597.00	9619.60
598.00	9708.54
599.00	9826.35
600.00	9984.73
601.00	9988.63
602.00	10035.44
603.00	10118.14
604.00	10209.42
605.00	10426.31
606.00	10389.64
607.00	10471.56
608.00	10400.56
609.00	10560.50
610.00	10516.03
611.00	10498.86
612.00	10558.16
613.00	10652.56
614.00	10827.32
615.00	10929.52
616.00	11131.59
617.00	11146.41
618.00	11163.58
619.00	11178.40
620.00	11347.70
621.00	11556.00
622.00	11736.23
623.00	11882.90
624.00	11889.92
625.00	11957.02
626.00	11933.61
627.00	12033.47
628.00	12074.82
629.00	12329.16
630.00	12437.61
631.00	12553.85
632.00	12493.00
633.00	12752.80
634.00	12941.60
635.00	13074.23
636.00	13120.26
637.00	13167.07
638.00	13288.00
639.00	13230.27
640.00	13308.29
641.00	13447.16
642.00	13511.91
643.00	13575.11
644.00	13611.78
645.00	13749.87
646.00	13820.08
647.00	13896.54
648.00	13991.72
649.00	14143.08
650.00	14214.07
651.00	14407.56
652.00	14465.29
653.00	14640.05
654.00	14722.75
655.00	14850.70
656.00	14845.24
657.00	14886.59
658.00	15068.37
659.00	15336.75
660.00	15405.41
661.00	15460.02
662.00	15538.04
663.00	15612.15
664.00	15624.64
665.00	15593.43
666.00	15776.77
667.00	15960.11
668.00	16227.71
669.00	16361.12
670.00	16443.04
671.00	16301.05
672.00	16382.97
673.00	16411.06
674.00	16691.14
675.00	16730.93
676.00	16927.53
677.00	16888.53
678.00	16933.00
679.00	17000.87
680.00	17310.60
681.00	17590.69
682.00	17769.35
683.00	17841.90
684.00	17916.80
685.00	18029.15
686.00	18088.44
687.00	18242.14
688.00	18210.93
689.00	18282.70
690.00	18222.63
691.00	18465.27
692.00	18610.38
693.00	18711.80
694.00	18747.69
695.00	18817.91
696.00	18908.41
697.00	18991.11
698.00	19084.73
699.00	19145.58
700.00	19172.11
701.00	19295.38
702.00	19413.18
703.00	19594.18
704.00	19630.07
705.00	19827.46
706.00	20067.75
707.00	20166.06
708.00	20334.57
709.00	20327.55
710.00	20525.72
711.00	20759.77
712.00	20905.66
713.00	20966.52
714.00	20931.41
715.00	20968.86
716.00	21029.71
717.00	21141.28
718.00	21253.62
719.00	21323.84
720.00	21395.62
721.00	21398.74
722.00	21532.15
723.00	21612.51
724.00	21651.52
725.00	21759.18
726.00	21714.71
727.00	21970.61
728.00	22021.32
729.00	22140.69
730.00	22024.44
731.00	21923.02
732.00	21920.68
733.00	22050.97
734.00	22196.86
735.00	22366.16
736.00	22507.37
737.00	22663.41
738.00	22713.34
739.00	22835.05
740.00	22931.79
741.00	23178.33
742.00	23176.76
743.00	23165.06
744.00	23059.74
745.00	23217.33
746.00	23417.06
747.00	23566.85
748.00	23603.52
749.00	23649.55
750.00	23736.15
751.00	23694.02
752.00	23810.27
753.00	23683.10
754.00	23846.16
755.00	23713.53
756.00	23917.93
757.00	23960.84
758.00	24155.11
759.00	24267.45
760.00	24400.86
761.00	24597.47
762.00	24673.15
763.00	24749.60
764.00	24767.55
765.00	24992.24
766.00	25174.02
767.00	25387.79
768.00	25368.29
769.00	25287.15
770.00	25331.62
771.00	25447.86
772.00	25755.26
773.00	25727.95
774.00	25791.92
775.00	25745.89
776.00	25834.83
777.00	26018.96
778.00	26055.62
779.00	26326.35
780.00	26261.59
781.00	26508.91
782.00	26606.43
783.00	26914.60
784.00	26895.88
785.00	26783.53
786.00	26803.03
787.00	26991.84
788.00	27331.22
789.00	27500.51
790.00	27491.93
791.00	27299.23
792.00	27191.56
793.00	27137.73
794.00	27315.61
795.00	27359.30
796.00	27602.72
797.00	27620.66
798.00	27794.64
799.00	27892.16
800.00	28170.69
801.00	28258.85
802.00	28363.39
803.00	28291.62
804.00	28271.33
805.00	28391.48
806.00	28549.07
807.00	28570.92
808.00	28514.75
809.00	28579.50
810.00	28811.99
811.00	29035.91
812.00	29098.32
813.00	29264.50
814.00	29358.12
815.00	29506.35
816.00	29701.40
817.00	29841.83
818.00	29817.64
819.00	29700.62
820.00	29702.18
821.00	29902.68
822.00	30093.83
823.00	30219.44
824.00	30154.68
825.00	29931.55
826.00	29843.39
827.00	29938.57
828.00	30192.13
829.00	30361.43
830.00	30512.78
831.00	30616.55
832.00	30766.34
833.00	30737.48
834.00	30769.46
835.00	30776.48
836.00	31062.03
837.00	31236.79
838.00	31349.92
839.00	31352.26
840.00	31307.79
841.00	31382.68
842.00	31424.81
843.00	31640.14
844.00	31800.08
845.00	31966.26
846.00	31984.20
847.00	31952.21
848.00	31957.67
849.00	32081.72
850.00	32057.54
851.00	32140.24
852.00	32154.28
853.00	32145.70
854.00	32185.49
855.00	32224.50
856.00	32436.70
857.00	32495.22
858.00	32595.86
859.00	32611.46
860.00	32648.91
861.00	32661.40
862.00	32936.80
863.00	33015.60
864.00	33081.91
865.00	33048.36
866.00	33426.75
867.00	33623.36
868.00	33912.02
869.00	34013.45
870.00	34180.40
871.00	34087.56
872.00	34020.47
873.00	34029.83
874.00	34070.40
875.00	34051.67
876.00	34106.29
877.00	34093.02
878.00	34200.69
879.00	34320.84
880.00	34412.12
881.00	34372.33
882.00	34131.25
883.00	34188.21
884.00	34118.77
885.00	34177.28
886.00	34291.97
887.00	34547.87
888.00	34827.17
889.00	34881.00
890.00	34885.68
891.00	34863.84
892.00	35054.98
893.00	35030.80
894.00	35253.93
895.00	35105.70
896.00	35312.44
897.00	35206.34
898.00	35322.58
899.00	35423.23
900.00	35729.84
901.00	35866.37
902.00	36076.24
903.00	36281.42
904.00	36497.53
905.00	36545.12
906.00	36262.70
907.00	36197.95
908.00	36094.18
909.00	36606.76
910.00	36566.19
911.00	36394.55
912.00	35858.57
913.00	35877.29
914.00	35922.54
915.00	36162.06
916.00	36258.02
917.00	36592.72
918.00	36735.49
919.00	36816.63
920.00	36836.13
921.00	36872.02
922.00	36952.38
923.00	36841.59
924.00	36736.27
925.00	36746.41
926.00	36964.08
927.00	37145.08
928.00	37092.03
929.00	37244.16
930.00	37422.05
931.00	37677.94
932.00	37757.52
933.00	37893.27
934.00	37798.87
935.00	37672.48
936.00	37518.01
937.00	37693.55
938.00	37848.80
939.00	38021.22
940.00	38009.52
941.00	38019.66
942.00	38014.98
943.00	38141.37
944.00	38148.39
945.00	38119.52
946.00	38255.28
947.00	38256.06
948.00	38380.88
949.00	38272.44
950.00	38395.71
951.00	38345.00
952.00	38204.56
953.00	38093.78
954.00	38198.32
955.00	38551.74
956.00	38824.03
957.00	38939.49
958.00	39154.82
959.00	39261.71
960.00	39484.84
961.00	39310.08
962.00	39378.73
963.00	39545.69
964.00	39956.85
965.00	40083.23
966.00	40055.93
967.00	39965.43
968.00	40065.29
969.00	40002.10
970.00	40265.80
971.00	40424.95
972.00	40722.98
973.00	40440.56
974.00	40364.88
975.00	40387.50
976.00	40503.75
977.00	40423.39
978.00	40098.06
979.00	39901.45
980.00	39839.04
981.00	40125.36
982.00	40378.14
983.00	40616.88
984.00	40777.59
985.00	40896.18
986.00	40861.85
987.00	40745.61
988.00	40741.71
989.00	40776.81
990.00	40863.41
991.00	40811.14
992.00	40935.97
993.00	40887.60
994.00	41101.37
995.00	41184.07
996.00	41229.32
997.00	41456.35
998.00	41611.60
999.00	41918.21
1000.00	42071.13
1001.00	42273.98
1002.00	42188.94
1003.00	41898.71
1004.00	41937.72
1005.00	42025.88
1006.00	42273.20
1007.00	42220.14
1008.00	42494.77
1009.00	42212.34
1010.00	42207.66
1011.00	41989.99
1012.00	42217.80
1013.00	42115.60
1014.00	42334.83
1015.00	42457.32
1016.00	42731.16
1017.00	42753.79
1018.00	42929.33
1019.00	42960.53
1020.00	42941.81
1021.00	42848.97
1022.00	42776.41
1023.00	42605.55
1024.00	42631.30
1025.00	42823.22
1026.00	43209.41
1027.00	43370.13
1028.00	43636.95
1029.00	43508.22
1030.00	43645.53
1031.00	43598.72
1032.00	43868.66
1033.00	44008.31
1034.00	43951.36
1035.00	43968.52
1036.00	43810.15
1037.00	43924.83
1038.00	43965.40
1039.00	44221.30
1040.00	44164.35
1041.00	44239.25
1042.00	44172.93
1043.00	44392.94
1044.00	44463.16
1045.00	44615.29
1046.00	44522.45
1047.00	44497.48
1048.00	44539.61
1049.00	44609.83
1050.00	44794.73
1051.00	44828.28
1052.00	44945.31
1053.00	45018.64
1054.00	45085.74
1055.00	44972.61
1056.00	44874.31
1057.00	44800.97
1058.00	45035.81
1059.00	45035.81
1060.00	45181.70
1061.00	45152.83
1062.00	45313.55
1063.00	45254.26
1064.00	45283.90
1065.00	45319.01
1066.00	45709.88
1067.00	45912.73
1068.00	45909.61
1069.00	45659.17
1070.00	45571.79
1071.00	45662.29
1072.00	45632.64
1073.00	45720.80
1074.00	45833.15
1075.00	45972.02
1076.00	45970.46
1077.00	45934.57
1078.00	45952.52
1079.00	45913.51
1080.00	45738.75
1081.00	45894.78
1082.00	45976.70
1083.00	46078.13
1084.00	45888.54
1085.00	45960.32
1086.00	46082.03
1087.00	46114.79
1088.00	46100.75
1089.00	46204.52
1090.00	46358.99
1091.00	46461.97
1092.00	46513.47
1093.00	46617.23
1094.00	46799.79
1095.00	46949.59
1096.00	47116.54
1097.00	47111.08
1098.00	47058.81
1099.00	47000.30
1100.00	47046.33
1101.00	47136.05
1102.00	47285.06
1103.00	47334.21
1104.00	47381.02
1105.00	47432.52
1106.00	47423.15
1107.00	47404.43
1108.00	47328.75
1109.00	47518.34
1110.00	47676.71
1111.00	47700.90
1112.00	47604.16
1113.00	47522.24
1114.00	47515.22
1115.00	47384.93
1116.00	47328.75
1117.00	47212.51
1118.00	47269.46
1119.00	47289.74
1120.00	47466.06
1121.00	47557.35
1122.00	47682.17
1123.00	47487.13
1124.00	47323.29
1125.00	47189.10
1126.00	47366.20
1127.00	47534.72
1128.00	47496.49
1129.00	47466.84
1130.00	47520.68
1131.00	47748.49
1132.00	47927.15
1133.00	47827.29
1134.00	47754.73
1135.00	47637.70
1136.00	47631.46
1137.00	47665.79
1138.00	47736.01
1139.00	47998.93
1140.00	47975.52
1141.00	48082.41
1142.00	47991.90
1143.00	48041.06
1144.00	48030.91
1145.00	48097.23
1146.00	48178.37
1147.00	48062.12
1148.00	48143.26
1149.00	48049.64
1150.00	48212.70
1151.00	48217.38
1152.00	48365.61
1153.00	48476.40
1154.00	48344.55
1155.00	48321.14
1156.00	48193.97
1157.00	48320.36
1158.00	48370.29
1159.00	48409.30
1160.00	48454.55
1161.00	48696.41
1162.00	48839.18
1163.00	48980.39
1164.00	48860.24
1165.00	48871.17
1166.00	48807.19
1167.00	48740.88
1168.00	48628.53
1169.00	48520.09
1170.00	48333.62
1171.00	48219.72
1172.00	48147.16
1173.00	48364.83
1174.00	48516.18
1175.00	48615.27
1176.00	48569.24
1177.00	48477.96
1178.00	48532.57
1179.00	48520.09
1180.00	48689.38
1181.00	48733.07
1182.00	48916.42
1183.00	49112.24
1184.00	49236.29
1185.00	49269.84
1186.00	49066.21
1187.00	49166.85
1188.00	49188.70
1189.00	49247.21
1190.00	49120.82
1191.00	49084.15
1192.00	48877.41
1193.00	48804.85
1194.00	48675.34
1195.00	48825.14
1196.00	48915.64
1197.00	49031.88
1198.00	49069.33
1199.00	49038.12
1200.00	49075.57
1201.00	49094.30
1202.00	49139.55
1203.00	49250.33
1204.00	49409.49
1205.00	49538.22
1206.00	49536.66
1207.00	49612.34
1208.00	49426.65
1209.00	49336.93
1210.00	49180.12
1211.00	49211.32
1212.00	49323.67
1213.00	49330.69
1214.00	49228.49
1215.00	49174.66
1216.00	49092.74
1217.00	49283.88
1218.00	49223.81
1219.00	49251.89
1220.00	49169.19
1221.00	49078.69
1222.00	49038.90
1223.00	49047.49
1224.00	49013.16
1225.00	49043.59
1226.00	49201.18
1227.00	49411.05
1228.00	49396.23
1229.00	49303.38
1230.00	49384.52
1231.00	49616.24
1232.00	49726.24
1233.00	49833.13
1234.00	49794.12
1235.00	49756.67
1236.00	49705.96
1237.00	49810.50
1238.00	49925.19
1239.00	49973.56
1240.00	50039.87
1241.00	50063.28
1242.00	50192.79
1243.00	50337.90
1244.00	50478.33
1245.00	50358.19
1246.00	50179.53
1247.00	50188.11
1248.00	50308.25
1249.00	50473.65
1250.00	50412.80
1251.00	50352.72
1252.00	50293.43
1253.00	50319.96
1254.00	50259.88
1255.00	50039.87
1256.00	50035.97
1257.00	50161.58
1258.00	50242.72
1259.00	50091.37
1260.00	49985.26
1261.00	50126.47
1262.00	50362.87
1263.00	50652.31
1264.00	50845.02
1265.00	50891.83
1266.00	50905.87
1267.00	51014.32
1268.00	51144.61
1269.00	51179.71
1270.00	50870.76
1271.00	50763.10
1272.00	50681.18
1273.00	50664.02
1274.00	50681.96
1275.00	50528.27
1276.00	50664.80
1277.00	50591.46
1278.00	50674.16
1279.00	50727.99
1280.00	50690.54
1281.00	50900.41
1282.00	51080.63
1283.00	51292.84
1284.00	51103.26
1285.00	51111.06
1286.00	51125.88
1287.00	51228.09
1288.00	51162.55
1289.00	51234.33
1290.00	51337.31
1291.00	51476.18
1292.00	51568.24
1293.00	51558.10
1294.00	51484.76
1295.00	51329.51
1296.00	51281.92
1297.00	51080.63
1298.00	51081.41
1299.00	51008.08
1300.00	51134.46
1301.00	51246.81
1302.00	51368.52
1303.00	51404.41
1304.00	51401.28
1305.00	51505.83
1306.00	51637.68
1307.00	51629.88
1308.00	51583.85
1309.00	51410.65
1310.00	51434.83
1311.00	51406.75
1312.00	51608.81
1313.00	51602.57
1314.00	51739.10
1315.00	51861.59
1316.00	52036.35
1317.00	52141.67
1318.00	52007.48
1319.00	51967.69
1320.00	51885.78
1321.00	52030.11
1322.00	52017.63
1323.00	52074.58
1324.00	52084.72
1325.00	52046.49
1326.00	52077.70
1327.00	52097.20
1328.00	52190.83
1329.00	52364.03
1330.00	52336.72
1331.00	52535.66
1332.00	52252.46
1333.00	52083.94
1334.00	51793.71
1335.00	51870.95
1336.00	51954.43
1337.00	52093.30
1338.00	51982.52
1339.00	52009.82
1340.00	52058.20
1341.00	52195.51
1342.00	52284.45
1343.00	52268.84
1344.00	52342.96
1345.00	52328.92
1346.00	52354.66
1347.00	52413.18
1348.00	52344.52
1349.00	52360.90
1350.00	52124.51
1351.00	52135.43
1352.00	51998.12
1353.00	52016.07
1354.00	52059.76
1355.00	52089.40
1356.00	52292.25
1357.00	52388.21
1358.00	52522.40
1359.00	52466.23
1360.00	52444.38
1361.00	52364.81
1362.00	52356.22
1363.00	52261.82
1364.00	52142.45
1365.00	52166.64
1366.00	52193.95
1367.00	52345.30
1368.00	52327.36
1369.00	52442.82
1370.00	52459.21
1371.00	52543.47
1372.00	52497.44
1373.00	52580.13
1374.00	52601.98
1375.00	52607.44
1376.00	52503.68
1377.00	52264.16
1378.00	52202.53
1379.00	52131.53
1380.00	52309.41
1381.00	52475.59
1382.00	52567.65
1383.00	52451.41
1384.00	52111.25
1385.00	51971.60
1386.00	51850.67
1387.00	51932.59
1388.00	51895.92
1389.00	51879.53
1390.00	51904.50
1391.00	51948.19
1392.00	52149.48
1393.00	52240.76
1394.00	52401.47
1395.00	52408.50
1396.00	52341.40
1397.00	52103.45
1398.00	52010.60
1399.00	51863.93
1400.00	51948.19
1401.00	51921.66
1402.00	51977.06
1403.00	51928.69
1404.00	51994.22
1405.00	52197.07
1406.00	52364.03
1407.00	52520.84
1408.00	52558.29
1409.00	52554.39
1410.00	52516.94
1411.00	52615.24
1412.00	52673.76
1413.00	52729.93
1414.00	52753.33
1415.00	52814.19
1416.00	52700.28
1417.00	52536.44
1418.00	52365.59
1419.00	52374.95
1420.00	52410.06
1421.00	52462.33
1422.00	52480.27
1423.00	52381.97
1424.00	52500.56
1425.00	52519.28
1426.00	52555.95
1427.00	52429.56
1428.00	52300.83
1429.00	52144.80
1430.00	52098.76
1431.00	52248.56
1432.00	52275.08
1433.00	52193.17
1434.00	51940.39
1435.00	51820.24
1436.00	51657.18
1437.00	51636.90
1438.00	51643.92
1439.00	51808.54
1440.00	51853.79
1441.00	51975.50
1442.00	51980.96
1443.00	51996.56
1444.00	51943.51
1445.00	51814.78
1446.00	51953.65
1447.00	52022.31
1448.00	52081.60
1449.00	52030.89
1450.00	52074.58
1451.00	52345.30
1452.00	52364.81
1453.00	52507.58
1454.00	52289.13
1455.00	52203.31
1456.00	51997.34
1457.00	52017.63
1458.00	52200.97
1459.00	52239.98
1460.00	52300.05
1461.00	52092.52
1462.00	52039.47
1463.00	51998.12
1464.00	52077.70
1465.00	52122.95
1466.00	52010.60
1467.00	51885.78
1468.00	51817.90
1469.00	51916.20
1470.00	51999.68
1471.00	52037.13
1472.00	52044.93
1473.00	51916.20
1474.00	51970.04
1475.00	51891.24
1476.00	52011.38
1477.00	51874.07
1478.00	51945.07
1479.00	51870.17
1480.00	51822.58
1481.00	51714.92
1482.00	51767.97
1483.00	51700.09
1484.00	51678.25
1485.00	51487.10
1486.00	51526.11
1487.00	51546.40
1488.00	51661.08
1489.00	51469.16
1490.00	51372.42
1491.00	51402.07
1492.00	51495.69
1493.00	51494.13
1494.00	51471.50
1495.00	51623.64
1496.00	51700.87
1497.00	51687.61
1498.00	51606.47
1499.00	51558.10
1500.00	51572.14
1501.00	51608.03
1502.00	51669.67
1503.00	51647.82
1504.00	51609.59
1505.00	51526.11
1506.00	51486.32
1507.00	51496.47
1508.00	51446.54
1509.00	51338.09
1510.00	51278.80
1511.00	51381.00
1512.00	51547.96
1513.00	51597.89
1514.00	51582.29
1515.00	51604.91
1516.00	51519.87
1517.00	51423.13
1518.00	51182.84
1519.00	51240.57
1520.00	51150.85
1521.00	51174.25
1522.00	51095.45
1523.00	51105.60
1524.00	51134.46
1525.00	51077.51
1526.00	51120.42
1527.00	51113.40
1528.00	51211.70
1529.00	51194.54
1530.00	51238.23
1531.00	51200.78
1532.00	51156.31
1533.00	51082.19
1534.00	51167.23
1535.00	51315.47
1536.00	51461.36
1537.00	51510.51
1538.00	51678.25
1539.00	51629.10
1540.00	51594.77
1541.00	51344.33
1542.00	51326.39
1543.00	51390.36
1544.00	51469.16
1545.00	51499.59
1546.00	51331.07
1547.00	51157.87
1548.00	50972.97
1549.00	50958.14
1550.00	50940.98
1551.00	51082.19
1552.00	51068.15
1553.00	51306.88
1554.00	51256.17
1555.00	51263.19
1556.00	51262.41
1557.00	51257.73
1558.00	51271.00
1559.00	50997.93
1560.00	50900.41
1561.00	50641.39
1562.00	50661.68
1563.00	50660.12
1564.00	50745.94
1565.00	50767.00
1566.00	50628.13
1567.00	50492.38
1568.00	50153.00
1569.00	50045.33
1570.00	50133.49
1571.00	50311.38
1572.00	50306.69
1573.00	50313.72
1574.00	50308.25
1575.00	50446.35
1576.00	50459.61
1577.00	50474.43
1578.00	50403.44
1579.00	50346.48
1580.00	50369.11
1581.00	50586.00
1582.00	50651.53
1583.00	50668.70
1584.00	50434.64
1585.00	50430.74
1586.00	50265.34
1587.00	50174.84
1588.00	50179.53
1589.00	50348.82
1590.00	50436.98
1591.00	50375.35
1592.00	50244.28
1593.00	50162.36
1594.00	50230.24
1595.00	50173.28
1596.00	50262.22
1597.00	50184.21
1598.00	50222.44
1599.00	50225.56
1600.00	50167.04
1601.00	50082.78
1602.00	50081.22
1603.00	50130.37
1604.00	50383.93
1605.00	50419.04
1606.00	50340.24
1607.00	50074.98
1608.00	49844.83
1609.00	49894.76
1610.00	49856.53
1611.00	49940.01
1612.00	49887.74
1613.00	50047.68
1614.00	50034.41
1615.00	50031.29
1616.00	49939.23
1617.00	50022.71
1618.00	50127.25
1619.00	50163.14
1620.00	50183.43
1621.00	50032.85
1622.00	50190.45
1623.00	50214.63
1624.00	50353.51
1625.00	50168.60
1626.00	49965.76
1627.00	49842.49
1628.00	49777.73
1629.00	49970.44
1630.00	50143.64
1631.00	50337.90
1632.00	50372.23
1633.00	50334.00
1634.00	50244.28
1635.00	50147.54
1636.00	49958.73
1637.00	49962.64
1638.00	49889.30
1639.00	49925.19
1640.00	49801.14
1641.00	49815.96
1642.00	49708.30
1643.00	49621.70
1644.00	49372.04
1645.00	49331.47
1646.00	49400.91
1647.00	49476.58
1648.00	49421.19
1649.00	49438.36
1650.00	49510.13
1651.00	49498.43
1652.00	49544.46
1653.00	49647.44
1654.00	49731.70
1655.00	49639.64
1656.00	49314.31
1657.00	49290.90
1658.00	49205.08
1659.00	49291.68
1660.00	49209.76
1661.00	49128.62
1662.00	49194.16
1663.00	49224.59
1664.00	49443.04
1665.00	49522.62
1666.00	49575.67
1667.00	49553.82
1668.00	49407.15
1669.00	49388.42
1670.00	49241.75
1671.00	49318.21
1672.00	49217.57
1673.00	49319.77
1674.00	49215.22
1675.00	49330.69
1676.00	49265.94
1677.00	49414.95
1678.00	49183.24
1679.00	49029.54
1680.00	48694.07
1681.00	48684.70
1682.00	48566.90
1683.00	48518.53
1684.00	48518.53
1685.00	48701.87
1686.00	48842.30
1687.00	48929.68
1688.00	48936.70
1689.00	48863.36
1690.00	48642.57
1691.00	48383.55
1692.00	48133.90
1693.00	48117.51
1694.00	47974.74
1695.00	48059.00
1696.00	47945.87
1697.00	48145.60
1698.00	48264.19
1699.00	48513.06
1700.00	48734.63
1701.00	48823.58
1702.00	48954.64
1703.00	48776.76
1704.00	48700.31
1705.00	48534.91
1706.00	48491.22
1707.00	48444.41
1708.00	48432.71
1709.00	48409.30
1710.00	48278.23
1711.00	48056.66
1712.00	47775.80
1713.00	47486.35
1714.00	47148.53
1715.00	47054.91
1716.00	47224.21
1717.00	47325.63
1718.00	47491.81
1719.00	47322.51
1720.00	47462.94
1721.00	47331.09
1722.00	47653.31
1723.00	47733.67
1724.00	47850.69
1725.00	47731.33
1726.00	47523.80
1727.00	47353.72
1728.00	47078.32
1729.00	46986.25
1730.00	46959.73
1731.00	47027.60
1732.00	46898.09
1733.00	46536.09
1734.00	46252.11
1735.00	46230.26
1736.00	46295.80
1737.00	46231.82
1738.00	46173.31
1739.00	46306.72
1740.00	46200.61
1741.00	46091.39
1742.00	45626.40
1743.00	45600.66
1744.00	45404.83
1745.00	45457.88
1746.00	45446.96
1747.00	45512.50
1748.00	45496.11
1749.00	45382.21
1750.00	45179.36
1751.00	44865.73
1752.00	44624.65
1753.00	44346.13
1754.00	44321.16
1755.00	44331.31
1756.00	44417.13
1757.00	44284.50
1758.00	44012.21
1759.00	43898.31
1760.00	43906.11
1761.00	43996.61
1762.00	43978.67
1763.00	43891.29
1764.00	43765.68
1765.00	43661.91
1766.00	43633.05
1767.00	43626.81
1768.00	43515.24
1769.00	43555.03
1770.00	43641.63
1771.00	43709.50
1772.00	43674.40
1773.00	43654.89
1774.00	43641.63
1775.00	43579.99
1776.00	43362.33
1777.00	43255.44
1778.00	43247.64
1779.00	43249.98
1780.00	42983.16
1781.00	42803.72
1782.00	42760.03
1783.00	42983.16
1784.00	42883.30
1785.00	42682.79
1786.00	42433.13
1787.00	42292.70
1788.00	42104.68
1789.00	41805.87
1790.00	41503.16
1791.00	41163.00
1792.00	41088.10
1793.00	40970.30
1794.00	40939.87
1795.00	40694.11
1796.00	40577.09
1797.00	40414.03
1798.00	40473.32
1799.00	40404.67
1800.00	40259.55
1801.00	39933.44
1802.00	39645.55
1803.00	39502.00
1804.00	39544.91
1805.00	39484.06
1806.00	39363.13
1807.00	39066.66
1808.00	38935.59
1809.00	38894.24
1810.00	39006.59
1811.00	38948.07
1812.00	38797.50
1813.00	38593.87
1814.00	38549.40
1815.00	38494.79
1816.00	38511.95
1817.00	38264.64
1818.00	38144.49
1819.00	37748.16
1820.00	37674.82
1821.00	37440.77
1822.00	37424.39
1823.00	37163.03
1824.00	37027.28
1825.00	36743.29
1826.00	36634.06
1827.00	36586.47
1828.00	36659.03
1829.00	36684.00
1830.00	36291.57
1831.00	36154.26
1832.00	35957.65
1833.00	35929.56
1834.00	35580.04
1835.00	35232.86
1836.00	34781.92
1837.00	34605.60
1838.00	34379.35
1839.00	34405.09
1840.00	34151.54
1841.00	34028.27
1842.00	33794.22
1843.00	33563.28
1844.00	33287.88
1845.00	33170.85
1846.00	33057.73
1847.00	32811.19
1848.00	32588.84
1849.00	32342.30
1850.00	32318.12
1851.00	32043.49
1852.00	31931.15
1853.00	31651.84
1854.00	31557.44
1855.00	31349.14
1856.00	31156.43
1857.00	31064.37
1858.00	30980.11
1859.00	31002.74
1860.00	30973.87
1861.00	30777.26
1862.00	30614.99
1863.00	30605.63
1864.00	30479.24
1865.00	30226.46
1866.00	29813.74
1867.00	29727.92
1868.00	29596.85
1869.00	29446.28
1870.00	29156.83
1871.00	28865.05
1872.00	28495.24
1873.00	28217.50
1874.00	28024.79
1875.00	27973.30
1876.00	28056.00
1877.00	28041.18
1878.00	27757.19
1879.00	27293.77
1880.00	27036.31
1881.00	26884.95
1882.00	26654.80
1883.00	26384.08
1884.00	26249.11
1885.00	26143.78
1886.00	25942.50
1887.00	25824.69
1888.00	25736.53
1889.00	25717.03
1890.00	25525.10
1891.00	25369.85
1892.00	25144.38
1893.00	24957.13
1894.00	24822.16
1895.00	24808.90
1896.00	24663.00
1897.00	24492.15
1898.00	24173.83
1899.00	24107.52
1900.00	23999.07
1901.00	24006.87
1902.00	23884.39
1903.00	23733.81
1904.00	23533.31
1905.00	23427.20
1906.00	23157.26
1907.00	22935.69
1908.00	22707.10
1909.00	22669.65
1910.00	22483.19
1911.00	22249.13
1912.00	22029.90
1913.00	21976.07
1914.00	21797.41
1915.00	21726.41
1916.00	21684.28
1917.00	21631.23
1918.00	21408.88
1919.00	21006.31
1920.00	20688.78
1921.00	20482.81
1922.00	20475.79
1923.00	20439.90
1924.00	20446.92
1925.00	20306.49
1926.00	20279.96
1927.00	19922.64
1928.00	19850.08
1929.00	19676.88
1930.00	19736.18
1931.00	19552.06
1932.00	19397.58
1933.00	19240.76
1934.00	19135.44
1935.00	19002.03
1936.00	18859.26
1937.00	18664.21
1938.00	18517.54
1939.00	18377.11
1940.00	18258.52
1941.00	18159.44
1942.00	18067.38
1943.00	17975.31
1944.00	17845.02
1945.00	17643.74
1946.00	17504.09
1947.00	17222.44
1948.00	17192.80
1949.00	17108.54
1950.00	17110.10
1951.00	16961.08
1952.00	16919.73
1953.00	16903.35
1954.00	16872.92
1955.00	16605.32
1956.00	16402.47
1957.00	16122.39
1958.00	16106.01
1959.00	15958.55
1960.00	15896.14
1961.00	15677.69
1962.00	15529.45
1963.00	15505.27
1964.00	15496.69
1965.00	15395.26
1966.00	15215.82
1967.00	15137.02
1968.00	15133.12
1969.00	15116.74
1970.00	15026.24
1971.00	14976.31
1972.00	14801.55
1973.00	14692.32
1974.00	14630.69
1975.00	14597.14
1976.00	14367.77
1977.00	14211.73
1978.00	14024.49
1979.00	13995.62
1980.00	13876.26
1981.00	13800.58
1982.00	13685.11
1983.00	13536.10
1984.00	13557.94
1985.00	13575.11
1986.00	13505.67
1987.00	13326.23
1988.00	13192.82
1989.00	13117.14
1990.00	13056.29
1991.00	12902.59
1992.00	12885.43
1993.00	12738.76
1994.00	12737.20
1995.00	12618.61
1996.00	12625.63
1997.00	12485.20
1998.00	12368.17
1999.00	12282.35
2000.00	12286.25
2001.00	12198.87
2002.00	12132.56
2003.00	11976.52
2004.00	11885.24
2005.00	11796.30
2006.00	11760.41
2007.00	11699.56
2008.00	11590.33
2009.00	11459.26
2010.00	11462.38
2011.00	11417.91
2012.00	11437.42
2013.00	11355.50
2014.00	11295.43
2015.00	11215.85
2016.00	11162.01
2017.00	11113.64
2018.00	11053.57
2019.00	11002.86
2020.00	10877.25
2021.00	10886.61
2022.00	10839.80
2023.00	10820.30
2024.00	10633.83
2025.00	10487.94
2026.00	10466.88
2027.00	10388.08
2028.00	10341.27
2029.00	10189.91
2030.00	10167.29
2031.00	10153.24
2032.00	10080.69
2033.00	10016.71
2034.00	9959.76
2035.00	9909.83
2036.00	9874.72
2037.00	9806.84
2038.00	9777.98
2039.00	9714.00
2040.00	9631.30
2041.00	9623.50
2042.00	9516.62
2043.00	9444.84
2044.00	9399.59
2045.00	9437.04
2046.00	9448.74
2047.00	9399.59
>>>>>End Processed Spectral Data<<<<<
