SpectraSuite Data File
++++++++++++++++++++++++++++++++++++
Date: Thu Nov 16 14:11:23 EST 2017
User: cheriyan
Dark Spectrum Present: No
Reference Spectrum Present: No
Number of Sampled Component Spectra: 1
Spectrometers: USB2+H05261
Integration Time (usec): 100000 (USB2+H05261)
Spectra Averaged: 1 (USB2+H05261)
Boxcar Smoothing: 1 (USB2+H05261)
Correct for Electrical Dark: No (USB2+H05261)
Strobe/Lamp Enabled: No (USB2+H05261)
Correct for Detector Non-linearity: No (USB2+H05261)
Correct for Stray Light: No (USB2+H05261)
Number of Pixels in Processed Spectrum: 2048
>>>>>Begin Processed Spectral Data<<<<<
0.00	383.85
1.00	383.85
2.00	342.50
3.00	298.81
4.00	243.42
5.00	241.08
6.00	239.51
7.00	260.58
8.00	252.00
9.00	244.20
10.00	228.59
11.00	229.37
12.00	220.79
13.00	223.13
14.00	235.61
15.00	218.45
16.00	212.21
17.00	206.75
18.00	261.36
19.00	255.12
20.00	281.64
21.00	262.92
22.00	323.77
23.00	336.26
24.00	459.53
25.00	559.39
26.00	644.43
27.00	650.67
28.00	619.46
29.00	645.99
30.00	640.53
31.00	650.67
32.00	656.91
33.00	677.98
34.00	684.22
35.00	690.46
36.00	677.20
37.00	709.18
38.00	686.56
39.00	711.52
40.00	709.18
41.00	763.01
42.00	766.92
43.00	791.88
44.00	750.53
45.00	738.83
46.00	710.74
47.00	741.17
48.00	777.84
49.00	808.26
50.00	783.30
51.00	759.11
52.00	754.43
53.00	804.36
54.00	844.93
55.00	812.95
56.00	772.38
57.00	734.93
58.00	744.29
59.00	764.58
60.00	756.77
61.00	769.26
62.00	766.14
63.00	803.58
64.00	831.67
65.00	806.70
66.00	807.48
67.00	802.80
68.00	834.01
69.00	842.59
70.00	832.45
71.00	854.30
72.00	816.85
73.00	824.65
74.00	812.95
75.00	829.33
76.00	809.05
77.00	802.80
78.00	821.53
79.00	863.66
80.00	856.64
81.00	840.25
82.00	820.75
83.00	838.69
84.00	879.26
85.00	878.48
86.00	901.89
87.00	888.62
88.00	903.45
89.00	869.90
90.00	867.56
91.00	891.74
92.00	904.23
93.00	911.25
94.00	890.18
95.00	927.63
96.00	914.37
97.00	913.59
98.00	880.82
99.00	908.13
100.00	895.64
101.00	921.39
102.00	890.18
103.00	910.47
104.00	883.16
105.00	909.69
106.00	904.23
107.00	935.43
108.00	934.65
109.00	973.66
110.00	934.65
111.00	934.65
112.00	925.29
113.00	949.48
114.00	944.80
115.00	958.06
116.00	980.68
117.00	1015.79
118.00	1029.06
119.00	1022.03
120.00	991.61
121.00	962.74
122.00	972.10
123.00	1018.13
124.00	1039.98
125.00	1026.72
126.00	1004.09
127.00	1032.18
128.00	1068.06
129.00	1082.89
130.00	1072.75
131.00	1089.91
132.00	1105.51
133.00	1145.30
134.00	1110.97
135.00	1114.10
136.00	1108.63
137.00	1157.78
138.00	1157.78
139.00	1148.42
140.00	1112.53
141.00	1121.90
142.00	1114.88
143.00	1158.57
144.00	1142.18
145.00	1139.06
146.00	1109.41
147.00	1142.18
148.00	1178.85
149.00	1196.79
150.00	1210.84
151.00	1173.39
152.00	1199.91
153.00	1194.45
154.00	1258.43
155.00	1267.01
156.00	1293.54
157.00	1276.37
158.00	1237.36
159.00	1251.41
160.00	1244.38
161.00	1251.41
162.00	1220.20
163.00	1208.50
164.00	1214.74
165.00	1210.84
166.00	1239.70
167.00	1265.45
168.00	1277.15
169.00	1292.76
170.00	1304.46
171.00	1312.26
172.00	1322.40
173.00	1323.18
174.00	1337.23
175.00	1305.24
176.00	1335.67
177.00	1377.02
178.00	1409.78
179.00	1400.42
180.00	1340.35
181.00	1353.61
182.00	1374.67
183.00	1417.58
184.00	1408.22
185.00	1431.63
186.00	1423.05
187.00	1445.67
188.00	1436.31
189.00	1457.37
190.00	1455.03
191.00	1455.03
192.00	1433.97
193.00	1448.79
194.00	1454.25
195.00	1519.79
196.00	1527.59
197.00	1547.09
198.00	1532.27
199.00	1542.41
200.00	1568.94
201.00	1594.69
202.00	1558.80
203.00	1520.57
204.00	1549.43
205.00	1602.49
206.00	1625.89
207.00	1575.18
208.00	1567.38
209.00	1572.84
210.00	1601.71
211.00	1607.17
212.00	1620.43
213.00	1636.81
214.00	1646.96
215.00	1633.69
216.00	1622.77
217.00	1608.73
218.00	1629.01
219.00	1638.38
220.00	1665.68
221.00	1654.76
222.00	1684.41
223.00	1703.91
224.00	1724.19
225.00	1769.44
226.00	1785.83
227.00	1798.31
228.00	1738.24
229.00	1748.38
230.00	1755.40
231.00	1795.19
232.00	1771.01
233.00	1798.31
234.00	1804.55
235.00	1843.56
236.00	1871.65
237.00	1861.51
238.00	1859.17
239.00	1874.77
240.00	1911.44
241.00	1917.68
242.00	1948.11
243.00	1957.47
244.00	1986.33
245.00	1955.91
246.00	1968.39
247.00	2013.64
248.00	2034.71
249.00	2039.39
250.00	2008.96
251.00	2035.49
252.00	2065.91
253.00	2077.62
254.00	2106.48
255.00	2122.09
256.00	2154.85
257.00	2126.77
258.00	2145.49
259.00	2135.35
260.00	2129.89
261.00	2118.18
262.00	2161.87
263.00	2195.42
264.00	2176.70
265.00	2155.63
266.00	2175.14
267.00	2213.37
268.00	2232.87
269.00	2253.94
270.00	2282.80
271.00	2303.09
272.00	2314.79
273.00	2331.17
274.00	2350.68
275.00	2336.63
276.00	2364.72
277.00	2361.60
278.00	2370.96
279.00	2338.98
280.00	2360.04
281.00	2389.69
282.00	2392.03
283.00	2409.97
284.00	2417.77
285.00	2424.80
286.00	2477.07
287.00	2473.95
288.00	2528.56
289.00	2507.49
290.00	2529.34
291.00	2486.43
292.00	2490.33
293.00	2517.64
294.00	2573.03
295.00	2565.23
296.00	2534.02
297.00	2537.92
298.00	2548.84
299.00	2609.70
300.00	2583.95
301.00	2617.50
302.00	2608.14
303.00	2612.82
304.00	2616.72
305.00	2601.12
306.00	2592.53
307.00	2618.28
308.00	2636.22
309.00	2719.70
310.00	2699.42
311.00	2708.00
312.00	2661.19
313.00	2660.41
314.00	2652.61
315.00	2694.74
316.00	2732.97
317.00	2764.95
318.00	2774.32
319.00	2764.95
320.00	2772.75
321.00	2785.24
322.00	2779.00
323.00	2801.62
324.00	2780.56
325.00	2821.13
326.00	2855.45
327.00	2881.20
328.00	2881.98
329.00	2846.87
330.00	2906.95
331.00	2945.17
332.00	2959.22
333.00	2934.25
334.00	2896.02
335.00	2966.24
336.00	2978.72
337.00	3033.33
338.00	3009.93
339.00	3017.73
340.00	3016.95
341.00	3041.14
342.00	3089.51
343.00	3122.27
344.00	3119.93
345.00	3156.60
346.00	3144.90
347.00	3158.16
348.00	3108.23
349.00	3107.45
350.00	3144.90
351.00	3192.49
352.00	3212.78
353.00	3233.84
354.00	3244.76
355.00	3283.77
356.00	3291.57
357.00	3326.68
358.00	3336.82
359.00	3382.85
360.00	3360.23
361.00	3415.62
362.00	3383.63
363.00	3417.96
364.00	3374.27
365.00	3383.63
366.00	3362.57
367.00	3416.40
368.00	3504.56
369.00	3596.62
370.00	3613.01
371.00	3529.53
372.00	3484.28
373.00	3483.50
374.00	3511.58
375.00	3548.25
376.00	3568.54
377.00	3593.50
378.00	3639.53
379.00	3644.99
380.00	3644.99
381.00	3630.17
382.00	3712.87
383.00	3780.75
384.00	3836.14
385.00	3882.17
386.00	3898.55
387.00	3921.96
388.00	3841.60
389.00	3902.45
390.00	3950.82
391.00	3999.98
392.00	4020.26
393.00	4024.94
394.00	3999.20
395.00	4016.36
396.00	4041.33
397.00	4129.49
398.00	4134.17
399.00	4146.65
400.00	4156.01
401.00	4173.96
402.00	4207.50
403.00	4259.78
404.00	4319.07
405.00	4380.70
406.00	4411.91
407.00	4370.56
408.00	4294.10
409.00	4249.63
410.00	4315.17
411.00	4350.28
412.00	4377.58
413.00	4347.16
414.00	4329.21
415.00	4385.38
416.00	4378.36
417.00	4457.94
418.00	4447.02
419.00	4492.27
420.00	4476.66
421.00	4506.31
422.00	4477.44
423.00	4459.50
424.00	4424.39
425.00	4470.42
426.00	4515.67
427.00	4539.86
428.00	4531.28
429.00	4504.75
430.00	4507.87
431.00	4514.89
432.00	4537.52
433.00	4593.69
434.00	4662.35
435.00	4716.18
436.00	4727.10
437.00	4723.20
438.00	4754.41
439.00	4717.74
440.00	4766.11
441.00	4811.36
442.00	4886.26
443.00	4865.19
444.00	4831.65
445.00	4830.87
446.00	4889.38
447.00	4936.19
448.00	4915.12
449.00	4850.37
450.00	4819.16
451.00	4860.51
452.00	4947.89
453.00	4966.62
454.00	5000.16
455.00	4974.42
456.00	5039.17
457.00	5066.48
458.00	5124.99
459.00	5086.76
460.00	5092.23
461.00	5144.50
462.00	5201.45
463.00	5193.65
464.00	5161.66
465.00	5169.46
466.00	5323.16
467.00	5404.30
468.00	5455.79
469.00	5407.42
470.00	5396.50
471.00	5388.69
472.00	5425.36
473.00	5414.44
474.00	5449.55
475.00	5431.60
476.00	5484.66
477.00	5565.01
478.00	5595.44
479.00	5589.20
480.00	5526.00
481.00	5559.55
482.00	5637.57
483.00	5682.04
484.00	5728.07
485.00	5745.24
486.00	5790.49
487.00	5777.22
488.00	5792.83
489.00	5847.44
490.00	5863.82
491.00	5870.06
492.00	5814.67
493.00	5842.76
494.00	5859.14
495.00	5916.87
496.00	5931.70
497.00	6016.74
498.00	6066.67
499.00	6127.52
500.00	6120.50
501.00	6174.33
502.00	6182.13
503.00	6205.54
504.00	6183.70
505.00	6214.90
506.00	6239.87
507.00	6273.42
508.00	6292.92
509.00	6309.30
510.00	6368.60
511.00	6399.80
512.00	6469.24
513.00	6487.18
514.00	6536.34
515.00	6519.17
516.00	6477.82
517.00	6483.28
518.00	6508.25
519.00	6547.26
520.00	6640.10
521.00	6676.77
522.00	6711.10
523.00	6658.82
524.00	6683.01
525.00	6743.08
526.00	6766.49
527.00	6809.40
528.00	6787.55
529.00	6809.40
530.00	6855.43
531.00	6881.18
532.00	6869.47
533.00	6799.26
534.00	6844.51
535.00	6905.36
536.00	6938.13
537.00	6900.68
538.00	6922.52
539.00	6918.62
540.00	7004.44
541.00	6983.38
542.00	7027.85
543.00	7079.34
544.00	7181.54
545.00	7249.42
546.00	7211.19
547.00	7257.22
548.00	7310.27
549.00	7339.14
550.00	7343.04
551.00	7380.49
552.00	7420.28
553.00	7397.65
554.00	7374.25
555.00	7401.55
556.00	7446.02
557.00	7508.44
558.00	7591.14
559.00	7651.99
560.00	7651.99
561.00	7681.64
562.00	7719.09
563.00	7804.13
564.00	7797.10
565.00	7864.20
566.00	7933.64
567.00	7953.14
568.00	8004.63
569.00	8018.68
570.00	8147.40
571.00	8258.19
572.00	8300.32
573.00	8285.50
574.00	8248.05
575.00	8315.92
576.00	8472.74
577.00	8475.86
578.00	8592.11
579.00	8615.51
580.00	8683.39
581.00	8642.04
582.00	8631.90
583.00	8735.66
584.00	8787.15
585.00	8879.21
586.00	8954.11
587.00	8983.76
588.00	8973.61
589.00	8993.90
590.00	9063.33
591.00	9229.51
592.00	9408.17
593.00	9537.68
594.00	9658.61
595.00	9618.82
596.00	9723.37
597.00	9690.60
598.00	9766.28
599.00	9843.51
600.00	10047.14
601.00	10127.50
602.00	10182.11
603.00	10134.52
604.00	10285.87
605.00	10429.43
606.00	10490.28
607.00	10499.64
608.00	10452.83
609.00	10544.89
610.00	10615.11
611.00	10643.98
612.00	10722.77
613.00	10812.49
614.00	10945.13
615.00	11001.30
616.00	11087.12
617.00	11229.89
618.00	11327.41
619.00	11318.05
620.00	11435.86
621.00	11570.05
622.00	11847.01
623.00	11985.88
624.00	12105.25
625.00	12123.19
626.00	12067.02
627.00	12117.73
628.00	12172.35
629.00	12362.71
630.00	12546.05
631.00	12696.63
632.00	12681.02
633.00	12768.40
634.00	12890.11
635.00	13104.66
636.00	13183.46
637.00	13232.61
638.00	13320.77
639.00	13395.67
640.00	13476.80
641.00	13538.44
642.00	13570.43
643.00	13709.30
644.00	13747.53
645.00	13844.27
646.00	13858.31
647.00	13943.35
648.00	13982.36
649.00	14082.22
650.00	14227.34
651.00	14452.81
652.00	14604.16
653.00	14679.84
654.00	14768.78
655.00	14828.07
656.00	14878.01
657.00	14943.54
658.00	15143.27
659.00	15364.06
660.00	15540.38
661.00	15621.52
662.00	15750.24
663.00	15832.94
664.00	15916.42
665.00	15943.73
666.00	15998.34
667.00	16028.77
668.00	16108.35
669.00	16216.01
670.00	16290.13
671.00	16333.04
672.00	16442.26
673.00	16595.18
674.00	16780.86
675.00	16892.43
676.00	16972.78
677.00	17064.07
678.00	17072.65
679.00	17214.64
680.00	17415.15
681.00	17619.55
682.00	17732.68
683.00	17781.05
684.00	17843.46
685.00	18026.81
686.00	18136.03
687.00	18314.69
688.00	18312.35
689.00	18402.07
690.00	18416.90
691.00	18615.06
692.00	18747.69
693.00	18939.62
694.00	18934.93
695.00	18971.60
696.00	18959.12
697.00	19064.44
698.00	19200.19
699.00	19367.15
700.00	19483.40
701.00	19505.24
702.00	19467.80
703.00	19502.12
704.00	19646.46
705.00	19940.58
706.00	20105.20
707.00	20237.83
708.00	20262.80
709.00	20352.52
710.00	20540.54
711.00	20684.09
712.00	20893.18
713.00	20993.04
714.00	21003.19
715.00	20970.42
716.00	20938.43
717.00	21230.22
718.00	21396.40
719.00	21537.61
720.00	21464.27
721.00	21409.66
722.00	21361.29
723.00	21505.62
724.00	21712.37
725.00	22029.90
726.00	21962.81
727.00	22159.41
728.00	22111.82
729.00	22359.92
730.00	22306.09
731.00	22263.96
732.00	22189.84
733.00	22245.23
734.00	22375.52
735.00	22405.95
736.00	22427.79
737.00	22537.80
738.00	22737.52
739.00	22813.98
740.00	22923.21
741.00	23085.48
742.00	23307.05
743.00	23349.96
744.00	23449.05
745.00	23530.97
746.00	23733.03
747.00	23756.44
748.00	23799.35
749.00	23804.81
750.00	23818.07
751.00	23807.15
752.00	23936.66
753.00	23953.04
754.00	24038.08
755.00	24036.52
756.00	24243.27
757.00	24272.14
758.00	24344.69
759.00	24327.53
760.00	24550.66
761.00	24673.15
762.00	24911.10
763.00	25011.74
764.00	25202.11
765.00	25195.87
766.00	25333.96
767.00	25383.89
768.00	25450.21
769.00	25536.02
770.00	25738.87
771.00	25896.47
772.00	26068.89
773.00	26068.11
774.00	26211.66
775.00	26206.98
776.00	26142.22
777.00	26192.94
778.00	26188.25
779.00	26340.39
780.00	26295.92
781.00	26557.28
782.00	26788.21
783.00	27016.02
784.00	27026.17
785.00	26934.88
786.00	27019.92
787.00	26920.06
788.00	27109.64
789.00	27283.62
790.00	27439.66
791.00	27622.22
792.00	27622.22
793.00	27686.20
794.00	27634.71
795.00	27531.72
796.00	27654.99
797.00	27626.12
798.00	27937.41
799.00	28118.42
800.00	28359.49
801.00	28384.46
802.00	28378.22
803.00	28308.78
804.00	28357.93
805.00	28549.07
806.00	28761.28
807.00	28854.12
808.00	28890.79
809.00	29053.07
810.00	29250.45
811.00	29287.90
812.00	29276.20
813.00	29332.37
814.00	29624.16
815.00	29918.29
816.00	30139.86
817.00	30045.46
818.00	29791.12
819.00	29654.59
820.00	29778.64
821.00	29936.23
822.00	30051.70
823.00	30044.68
824.00	30193.69
825.00	30161.70
826.00	30240.50
827.00	30284.19
828.00	30480.02
829.00	30576.76
830.00	30662.58
831.00	30707.05
832.00	30796.77
833.00	30856.84
834.00	30934.08
835.00	30997.27
836.00	31153.31
837.00	31282.82
838.00	31427.93
839.00	31456.02
840.00	31468.50
841.00	31509.85
842.00	31551.98
843.00	31690.07
844.00	31825.04
845.00	32077.04
846.00	32314.22
847.00	32483.52
848.00	32458.55
849.00	32410.96
850.00	32219.03
851.00	32223.72
852.00	32053.64
853.00	32254.14
854.00	32244.00
855.00	32584.16
856.00	32610.68
857.00	32714.45
858.00	32718.35
859.00	32734.73
860.00	32928.22
861.00	33031.20
862.00	33255.11
863.00	33234.05
864.00	33348.73
865.00	33475.12
866.00	33572.64
867.00	33585.91
868.00	33684.99
869.00	33960.39
870.00	34032.17
871.00	34214.73
872.00	34346.58
873.00	34402.75
874.00	34262.32
875.00	34066.50
876.00	34176.50
877.00	34386.37
878.00	34668.02
879.00	34690.64
880.00	34545.53
881.00	34323.18
882.00	34358.28
883.00	34497.94
884.00	34552.55
885.00	34389.49
886.00	34335.66
887.00	34415.24
888.00	34470.63
889.00	34607.16
890.00	34808.45
891.00	35088.53
892.00	35211.80
893.00	34998.81
894.00	34923.91
895.00	34861.50
896.00	35204.78
897.00	35286.70
898.00	35382.66
899.00	35397.48
900.00	35718.14
901.00	36011.48
902.00	36311.07
903.00	36455.40
904.00	36406.25
905.00	36433.56
906.00	36474.91
907.00	36467.89
908.00	36384.41
909.00	36624.70
910.00	36611.44
911.00	36631.72
912.00	36222.91
913.00	36146.45
914.00	36114.47
915.00	36084.04
916.00	36137.09
917.00	36396.89
918.00	36656.69
919.00	36829.89
920.00	36706.62
921.00	36708.18
922.00	36809.61
923.00	36971.10
924.00	37077.21
925.00	37054.58
926.00	37056.14
927.00	37138.06
928.00	37390.06
929.00	37457.15
930.00	37637.37
931.00	37732.56
932.00	37927.60
933.00	37917.46
934.00	37895.61
935.00	37813.70
936.00	37819.94
937.00	37848.02
938.00	37957.25
939.00	37940.08
940.00	37913.56
941.00	37748.16
942.00	37808.23
943.00	38004.84
944.00	38312.23
945.00	38543.94
946.00	38635.22
947.00	38627.42
948.00	38450.32
949.00	38419.11
950.00	38491.67
951.00	38653.95
952.00	38311.45
953.00	38045.41
954.00	38000.16
955.00	38337.98
956.00	38524.44
957.00	38722.60
958.00	39198.51
959.00	39544.13
960.00	39600.30
961.00	39299.16
962.00	39316.32
963.00	39475.48
964.00	39750.88
965.00	39684.56
966.00	39903.01
967.00	40129.27
968.00	40380.48
969.00	40336.01
970.00	40334.45
971.00	40478.00
972.00	40517.01
973.00	40387.50
974.00	40343.03
975.00	40456.94
976.00	40307.93
977.00	40414.03
978.00	40088.70
979.00	40097.28
980.00	39889.75
981.00	40205.72
982.00	40362.54
983.00	40546.66
984.00	40714.40
985.00	40875.90
986.00	41061.58
987.00	40865.75
988.00	40992.92
989.00	40873.56
990.00	41021.01
991.00	40811.92
992.00	40958.59
993.00	40863.41
994.00	41141.16
995.00	41270.67
996.00	41482.87
997.00	41638.13
998.00	41787.14
999.00	42052.41
1000.00	42254.47
1001.00	42218.58
1002.00	42073.47
1003.00	42003.25
1004.00	42182.70
1005.00	42338.73
1006.00	42365.26
1007.00	42307.52
1008.00	42492.43
1009.00	42356.67
1010.00	42340.29
1011.00	42066.45
1012.00	42172.55
1013.00	42092.19
1014.00	42331.71
1015.00	42444.05
1016.00	42664.07
1017.00	42937.13
1018.00	43099.40
1019.00	43368.57
1020.00	43309.27
1021.00	43322.54
1022.00	42991.74
1023.00	42661.72
1024.00	42674.21
1025.00	42966.77
1026.00	43449.70
1027.00	43619.78
1028.00	43727.45
1029.00	43586.24
1030.00	43528.50
1031.00	43613.54
1032.00	43806.25
1033.00	44051.22
1034.00	43942.78
1035.00	43899.87
1036.00	43896.75
1037.00	43959.94
1038.00	44035.62
1039.00	44041.08
1040.00	44188.53
1041.00	44513.87
1042.00	44570.04
1043.00	44770.55
1044.00	44771.33
1045.00	44949.99
1046.00	44939.07
1047.00	44623.09
1048.00	44532.59
1049.00	44445.21
1050.00	44886.79
1051.00	45155.96
1052.00	45431.36
1053.00	45377.53
1054.00	45331.50
1055.00	45046.73
1056.00	45006.16
1057.00	45086.52
1058.00	45504.70
1059.00	45639.67
1060.00	45642.01
1061.00	45259.72
1062.00	45240.99
1063.00	45083.40
1064.00	45385.33
1065.00	45397.81
1066.00	45677.11
1067.00	45794.14
1068.00	45700.52
1069.00	45598.32
1070.00	45545.26
1071.00	45721.58
1072.00	45781.66
1073.00	45858.90
1074.00	46153.80
1075.00	46240.40
1076.00	46132.74
1077.00	46000.11
1078.00	46125.72
1079.00	46288.77
1080.00	46151.46
1081.00	46110.89
1082.00	46071.10
1083.00	46156.92
1084.00	46160.05
1085.00	46327.78
1086.00	46500.98
1087.00	46714.75
1088.00	46827.88
1089.00	46971.43
1090.00	47008.88
1091.00	47059.59
1092.00	47129.81
1093.00	47186.76
1094.00	47269.46
1095.00	47124.35
1096.00	47147.75
1097.00	47189.10
1098.00	47271.80
1099.00	47269.46
1100.00	47161.01
1101.00	47130.59
1102.00	47173.50
1103.00	47198.46
1104.00	47264.00
1105.00	47214.85
1106.00	47163.36
1107.00	47119.66
1108.00	47319.39
1109.00	47500.39
1110.00	47791.40
1111.00	47558.13
1112.00	47629.90
1113.00	47351.38
1114.00	47409.11
1115.00	47189.88
1116.00	47359.18
1117.00	47393.51
1118.00	47601.04
1119.00	47732.89
1120.00	47884.24
1121.00	47909.99
1122.00	47965.38
1123.00	47951.34
1124.00	47835.09
1125.00	47633.80
1126.00	47564.37
1127.00	47651.75
1128.00	47796.08
1129.00	47786.72
1130.00	47918.57
1131.00	47882.68
1132.00	48057.44
1133.00	47883.46
1134.00	47878.00
1135.00	47807.00
1136.00	47934.17
1137.00	48166.66
1138.00	48231.42
1139.00	48404.62
1140.00	48198.65
1141.00	48299.30
1142.00	48304.76
1143.00	48347.67
1144.00	48279.01
1145.00	48092.55
1146.00	48244.68
1147.00	48189.29
1148.00	48328.94
1149.00	48242.34
1150.00	48273.55
1151.00	48396.04
1152.00	48545.83
1153.00	48643.35
1154.00	48506.04
1155.00	48341.42
1156.00	48164.32
1157.00	48134.68
1158.00	48211.92
1159.00	48477.18
1160.00	48797.05
1161.00	49072.45
1162.00	49146.57
1163.00	49113.02
1164.00	48950.74
1165.00	49036.56
1166.00	48889.89
1167.00	48956.21
1168.00	48881.31
1169.00	48908.61
1170.00	48725.27
1171.00	48680.02
1172.00	48532.57
1173.00	48580.16
1174.00	48630.87
1175.00	48754.14
1176.00	48826.70
1177.00	48726.83
1178.00	48676.12
1179.00	48723.71
1180.00	48871.17
1181.00	49013.94
1182.00	49185.58
1183.00	49288.56
1184.00	49567.09
1185.00	49503.89
1186.00	49539.78
1187.00	49484.39
1188.00	49526.52
1189.00	49432.89
1190.00	49373.60
1191.00	49332.25
1192.00	49091.96
1193.00	48980.39
1194.00	48925.00
1195.00	49300.26
1196.00	49373.60
1197.00	49365.02
1198.00	49230.05
1199.00	49257.35
1200.00	49224.59
1201.00	49264.38
1202.00	49168.41
1203.00	49427.43
1204.00	49611.56
1205.00	49918.17
1206.00	49808.94
1207.00	49783.19
1208.00	49493.75
1209.00	49405.59
1210.00	49057.63
1211.00	49045.15
1212.00	49306.51
1213.00	49450.06
1214.00	49380.62
1215.00	49254.23
1216.00	49379.84
1217.00	49510.91
1218.00	49535.88
1219.00	49482.05
1220.00	49491.41
1221.00	49354.10
1222.00	49412.61
1223.00	49521.05
1224.00	49422.75
1225.00	49294.02
1226.00	49255.79
1227.00	49468.78
1228.00	49581.91
1229.00	49517.93
1230.00	49538.22
1231.00	49658.37
1232.00	49865.89
1233.00	49908.80
1234.00	49885.40
1235.00	49763.69
1236.00	49910.36
1237.00	49898.66
1238.00	50042.99
1239.00	50092.15
1240.00	50192.01
1241.00	50251.30
1242.00	50234.14
1243.00	50321.52
1244.00	50248.18
1245.00	50222.44
1246.00	50137.40
1247.00	50348.04
1248.00	50442.45
1249.00	50543.09
1250.00	50431.52
1251.00	50334.00
1252.00	50262.22
1253.00	50116.33
1254.00	50112.43
1255.00	49933.77
1256.00	49928.31
1257.00	50033.63
1258.00	50309.82
1259.00	50386.27
1260.00	50305.91
1261.00	50259.88
1262.00	50403.44
1263.00	50842.68
1264.00	51115.74
1265.00	51406.75
1266.00	51247.59
1267.00	51292.06
1268.00	51226.52
1269.00	51308.44
1270.00	51163.33
1271.00	51015.88
1272.00	50986.23
1273.00	51012.76
1274.00	50857.50
1275.00	50634.37
1276.00	50678.84
1277.00	50803.67
1278.00	51030.70
1279.00	51029.92
1280.00	51100.92
1281.00	50954.24
1282.00	51008.08
1283.00	51112.62
1284.00	51242.91
1285.00	51339.65
1286.00	51453.56
1287.00	51413.77
1288.00	51445.76
1289.00	51392.70
1290.00	51482.42
1291.00	51554.20
1292.00	51716.48
1293.00	51720.38
1294.00	51551.86
1295.00	51547.18
1296.00	51659.52
1297.00	51682.15
1298.00	51469.94
1299.00	51221.06
1300.00	50955.02
1301.00	51092.33
1302.00	51274.90
1303.00	51634.56
1304.00	51732.08
1305.00	51703.21
1306.00	51587.75
1307.00	51381.78
1308.00	51359.94
1309.00	51330.29
1310.00	51357.60
1311.00	51427.81
1312.00	51725.06
1313.00	51771.09
1314.00	51846.77
1315.00	51907.62
1316.00	52167.42
1317.00	52325.02
1318.00	52218.13
1319.00	52150.26
1320.00	52151.82
1321.00	52243.10
1322.00	52193.17
1323.00	52168.98
1324.00	52222.03
1325.00	52202.53
1326.00	52201.75
1327.00	52228.27
1328.00	52542.69
1329.00	52808.73
1330.00	52743.97
1331.00	52645.67
1332.00	52364.03
1333.00	52300.83
1334.00	52126.85
1335.00	52058.20
1336.00	52065.22
1337.00	52034.01
1338.00	52051.17
1339.00	51972.38
1340.00	51916.98
1341.00	51927.13
1342.00	52053.51
1343.00	52144.80
1344.00	52195.51
1345.00	52083.16
1346.00	52129.19
1347.00	52186.14
1348.00	52274.30
1349.00	52317.99
1350.00	52203.31
1351.00	52293.81
1352.00	52176.78
1353.00	52384.31
1354.00	52300.05
1355.00	52431.12
1356.00	52408.50
1357.00	52570.77
1358.00	52545.03
1359.00	52623.82
1360.00	52572.33
1361.00	52608.22
1362.00	52470.91
1363.00	52419.42
1364.00	52341.40
1365.00	52417.08
1366.00	52499.00
1367.00	52622.26
1368.00	52649.57
1369.00	52708.08
1370.00	52718.23
1371.00	52704.96
1372.00	52633.19
1373.00	52771.28
1374.00	52882.84
1375.00	52905.47
1376.00	52822.77
1377.00	52701.06
1378.00	52678.44
1379.00	52619.14
1380.00	52658.93
1381.00	52613.68
1382.00	52534.88
1383.00	52329.70
1384.00	52204.09
1385.00	52122.17
1386.00	52030.89
1387.00	51932.59
1388.00	51924.78
1389.00	52015.29
1390.00	52176.00
1391.00	52257.14
1392.00	52381.97
1393.00	52428.78
1394.00	52462.33
1395.00	52481.05
1396.00	52487.29
1397.00	52435.80
1398.00	52385.87
1399.00	52340.62
1400.00	52417.86
1401.00	52284.45
1402.00	52289.91
1403.00	52162.74
1404.00	52264.94
1405.00	52300.83
1406.00	52321.12
1407.00	52418.64
1408.00	52438.92
1409.00	52436.58
1410.00	52496.66
1411.00	52580.92
1412.00	52756.46
1413.00	52743.97
1414.00	52817.31
1415.00	52871.14
1416.00	52909.37
1417.00	52747.87
1418.00	52648.01
1419.00	52648.01
1420.00	52896.89
1421.00	53048.24
1422.00	53100.51
1423.00	52798.58
1424.00	52673.76
1425.00	52559.07
1426.00	52600.42
1427.00	52628.51
1428.00	52569.21
1429.00	52403.03
1430.00	52296.15
1431.00	52273.52
1432.00	52314.87
1433.00	52317.21
1434.00	52249.34
1435.00	52187.70
1436.00	52048.83
1437.00	51991.88
1438.00	52125.29
1439.00	52173.66
1440.00	52206.43
1441.00	52109.69
1442.00	52129.19
1443.00	52052.73
1444.00	52039.47
1445.00	51958.33
1446.00	52189.27
1447.00	52371.05
1448.00	52591.06
1449.00	52559.85
1450.00	52526.30
1451.00	52527.86
1452.00	52533.32
1453.00	52539.57
1454.00	52350.76
1455.00	52316.43
1456.00	52266.50
1457.00	52378.85
1458.00	52389.77
1459.00	52277.43
1460.00	52190.05
1461.00	52089.40
1462.00	52107.35
1463.00	52087.84
1464.00	52096.42
1465.00	52101.89
1466.00	51994.22
1467.00	51923.22
1468.00	51846.77
1469.00	51970.04
1470.00	51960.67
1471.00	52077.70
1472.00	52105.01
1473.00	52136.99
1474.00	52122.17
1475.00	52163.52
1476.00	52199.41
1477.00	52094.86
1478.00	52095.64
1479.00	52109.69
1480.00	52115.93
1481.00	52026.21
1482.00	51966.91
1483.00	51942.73
1484.00	51888.90
1485.00	51703.21
1486.00	51791.37
1487.00	51672.79
1488.00	51759.39
1489.00	51609.59
1490.00	51583.07
1491.00	51487.88
1492.00	51551.08
1493.00	51558.88
1494.00	51590.87
1495.00	51537.82
1496.00	51695.41
1497.00	51779.67
1498.00	51903.72
1499.00	51879.53
1500.00	51963.01
1501.00	51981.74
1502.00	52009.82
1503.00	51944.29
1504.00	51800.74
1505.00	51765.63
1506.00	51658.74
1507.00	51582.29
1508.00	51437.17
1509.00	51397.38
1510.00	51508.95
1511.00	51604.91
1512.00	51710.24
1513.00	51711.80
1514.00	51631.44
1515.00	51535.48
1516.00	51313.90
1517.00	51437.95
1518.00	51413.77
1519.00	51544.06
1520.00	51466.04
1521.00	51478.52
1522.00	51512.85
1523.00	51515.19
1524.00	51533.92
1525.00	51381.78
1526.00	51259.29
1527.00	51182.84
1528.00	51352.91
1529.00	51316.25
1530.00	51295.18
1531.00	51180.49
1532.00	51170.35
1533.00	51321.71
1534.00	51384.90
1535.00	51531.57
1536.00	51583.07
1537.00	51589.31
1538.00	51721.94
1539.00	51678.25
1540.00	51624.42
1541.00	51490.23
1542.00	51464.48
1543.00	51646.26
1544.00	51675.91
1545.00	51664.21
1546.00	51444.19
1547.00	51288.94
1548.00	51283.48
1549.00	51353.69
1550.00	51350.57
1551.00	51260.07
1552.00	51140.71
1553.00	51256.17
1554.00	51362.28
1555.00	51472.28
1556.00	51441.07
1557.00	51411.43
1558.00	51345.11
1559.00	51224.96
1560.00	50930.84
1561.00	50731.11
1562.00	50667.14
1563.00	50663.24
1564.00	50687.42
1565.00	50696.78
1566.00	50699.90
1567.00	50685.08
1568.00	50522.80
1569.00	50348.04
1570.00	50312.94
1571.00	50265.34
1572.00	50422.16
1573.00	50444.01
1574.00	50548.55
1575.00	50593.02
1576.00	50497.84
1577.00	50440.89
1578.00	50362.09
1579.00	50451.03
1580.00	50488.48
1581.00	50477.55
1582.00	50570.39
1583.00	50671.82
1584.00	50750.62
1585.00	50660.90
1586.00	50562.59
1587.00	50451.03
1588.00	50524.36
1589.00	50546.99
1590.00	50614.08
1591.00	50464.29
1592.00	50388.61
1593.00	50292.65
1594.00	50249.74
1595.00	50256.76
1596.00	50370.67
1597.00	50381.59
1598.00	50309.04
1599.00	50291.87
1600.00	50343.36
1601.00	50268.47
1602.00	50225.56
1603.00	50155.34
1604.00	50226.34
1605.00	50225.56
1606.00	50057.82
1607.00	50016.47
1608.00	49878.38
1609.00	49933.77
1610.00	49925.19
1611.00	49989.16
1612.00	50099.17
1613.00	50057.82
1614.00	49968.88
1615.00	49939.23
1616.00	50026.61
1617.00	50243.50
1618.00	50462.73
1619.00	50482.23
1620.00	50600.82
1621.00	50406.56
1622.00	50435.42
1623.00	50239.60
1624.00	50227.90
1625.00	50065.62
1626.00	49898.66
1627.00	49813.62
1628.00	49751.21
1629.00	49814.40
1630.00	49850.29
1631.00	49989.94
1632.00	50054.70
1633.00	50167.04
1634.00	50224.78
1635.00	50255.20
1636.00	50042.21
1637.00	49922.07
1638.00	49716.88
1639.00	49804.26
1640.00	49641.98
1641.00	49671.63
1642.00	49609.21
1643.00	49744.19
1644.00	49546.02
1645.00	49528.86
1646.00	49566.30
1647.00	49608.43
1648.00	49584.25
1649.00	49476.58
1650.00	49600.63
1651.00	49465.66
1652.00	49507.01
1653.00	49441.48
1654.00	49440.70
1655.00	49343.17
1656.00	49343.17
1657.00	49543.68
1658.00	49492.97
1659.00	49297.14
1660.00	49089.62
1661.00	48939.04
1662.00	49034.22
1663.00	49068.55
1664.00	49443.82
1665.00	49672.41
1666.00	49724.68
1667.00	49570.21
1668.00	49375.94
1669.00	49233.95
1670.00	48987.41
1671.00	48860.24
1672.00	48867.26
1673.00	48908.61
1674.00	49118.48
1675.00	49339.27
1676.00	49487.51
1677.00	49276.08
1678.00	49058.41
1679.00	48880.53
1680.00	48763.50
1681.00	48505.26
1682.00	48428.80
1683.00	48410.86
1684.00	48472.49
1685.00	48721.37
1686.00	48892.23
1687.00	49150.47
1688.00	49045.93
1689.00	49004.58
1690.00	48833.72
1691.00	48656.62
1692.00	48470.93
1693.00	48294.61
1694.00	48098.01
1695.00	47928.71
1696.00	47734.45
1697.00	47936.51
1698.00	48159.64
1699.00	48607.47
1700.00	48717.47
1701.00	48864.92
1702.00	48868.83
1703.00	48857.90
1704.00	48871.17
1705.00	48792.37
1706.00	48687.04
1707.00	48502.92
1708.00	48387.46
1709.00	48482.64
1710.00	48385.89
1711.00	48326.60
1712.00	47959.14
1713.00	47805.44
1714.00	47624.44
1715.00	47743.81
1716.00	47799.98
1717.00	47860.83
1718.00	47883.46
1719.00	47839.77
1720.00	47732.11
1721.00	47539.40
1722.00	47468.40
1723.00	47543.30
1724.00	47558.13
1725.00	47619.76
1726.00	47496.49
1727.00	47374.78
1728.00	47079.10
1729.00	46916.04
1730.00	46919.16
1731.00	47047.89
1732.00	46951.93
1733.00	46722.55
1734.00	46542.33
1735.00	46603.97
1736.00	46576.66
1737.00	46510.35
1738.00	46298.92
1739.00	46259.13
1740.00	46042.24
1741.00	45972.80
1742.00	45894.00
1743.00	45798.82
1744.00	45654.49
1745.00	45422.00
1746.00	45592.86
1747.00	45492.21
1748.00	45590.51
1749.00	45422.78
1750.00	45501.57
1751.00	45299.51
1752.00	45047.51
1753.00	44627.77
1754.00	44299.32
1755.00	44204.92
1756.00	44290.74
1757.00	44496.70
1758.00	44443.65
1759.00	44377.34
1760.00	44293.86
1761.00	44201.02
1762.00	44187.75
1763.00	44093.35
1764.00	44034.06
1765.00	43867.10
1766.00	43629.15
1767.00	43568.29
1768.00	43670.50
1769.00	43855.40
1770.00	43991.93
1771.00	43995.83
1772.00	43847.60
1773.00	43827.31
1774.00	43697.02
1775.00	43704.04
1776.00	43563.61
1777.00	43360.76
1778.00	43265.58
1779.00	43136.07
1780.00	43161.82
1781.00	43047.13
1782.00	42807.62
1783.00	42671.09
1784.00	42585.27
1785.00	42610.23
1786.00	42359.80
1787.00	42174.11
1788.00	41952.54
1789.00	41932.26
1790.00	41666.22
1791.00	41504.72
1792.00	41313.58
1793.00	41402.52
1794.00	41297.19
1795.00	41162.22
1796.00	40884.48
1797.00	40702.70
1798.00	40500.63
1799.00	40319.63
1800.00	40158.13
1801.00	40003.66
1802.00	39756.34
1803.00	39516.04
1804.00	39236.74
1805.00	39248.44
1806.00	39007.37
1807.00	39142.34
1808.00	39068.22
1809.00	39232.84
1810.00	39024.53
1811.00	38820.13
1812.00	38662.53
1813.00	38724.94
1814.00	38633.66
1815.00	38540.82
1816.00	38227.19
1817.00	38036.05
1818.00	37990.02
1819.00	37935.40
1820.00	37872.99
1821.00	37645.18
1822.00	37440.77
1823.00	37361.97
1824.00	37287.85
1825.00	37066.28
1826.00	36752.65
1827.00	36312.63
1828.00	36368.02
1829.00	36374.27
1830.00	36207.31
1831.00	35911.62
1832.00	35878.85
1833.00	36037.23
1834.00	35967.79
1835.00	35664.30
1836.00	35116.62
1837.00	34885.68
1838.00	34621.20
1839.00	34629.01
1840.00	34523.68
1841.00	34270.12
1842.00	34170.26
1843.00	33823.86
1844.00	33613.99
1845.00	33423.63
1846.00	33015.60
1847.00	32833.82
1848.00	32456.99
1849.00	32435.14
1850.00	32397.70
1851.00	32277.55
1852.00	32107.47
1853.00	31944.41
1854.00	31752.49
1855.00	31517.65
1856.00	31203.24
1857.00	31121.32
1858.00	31030.82
1859.00	31012.88
1860.00	30831.10
1861.00	30778.04
1862.00	30582.22
1863.00	30428.52
1864.00	30197.59
1865.00	30001.77
1866.00	29759.91
1867.00	29648.35
1868.00	29550.04
1869.00	29376.84
1870.00	29102.22
1871.00	28736.32
1872.00	28524.89
1873.00	28347.79
1874.00	28264.31
1875.00	27930.39
1876.00	27834.43
1877.00	27558.25
1878.00	27648.75
1879.00	27339.02
1880.00	27094.82
1881.00	26775.73
1882.00	26710.97
1883.00	26565.86
1884.00	26389.54
1885.00	26081.37
1886.00	26093.85
1887.00	25951.08
1888.00	25834.83
1889.00	25553.97
1890.00	25557.09
1891.00	25404.17
1892.00	25206.79
1893.00	24943.09
1894.00	24780.03
1895.00	24628.68
1896.00	24417.25
1897.00	24254.97
1898.00	24086.45
1899.00	24067.73
1900.00	24067.73
1901.00	24121.56
1902.00	23978.01
1903.00	23836.80
1904.00	23712.75
1905.00	23560.61
1906.00	23339.82
1907.00	22970.02
1908.00	22855.33
1909.00	22662.63
1910.00	22595.53
1911.00	22412.97
1912.00	22194.52
1913.00	22072.03
1914.00	21802.09
1915.00	21688.18
1916.00	21551.65
1917.00	21481.44
1918.00	21324.62
1919.00	21231.00
1920.00	21107.73
1921.00	21028.15
1922.00	20815.94
1923.00	20555.36
1924.00	20327.55
1925.00	20149.67
1926.00	20103.64
1927.00	19885.19
1928.00	19697.17
1929.00	19536.45
1930.00	19504.46
1931.00	19443.61
1932.00	19325.80
1933.00	19210.34
1934.00	19074.59
1935.00	18953.66
1936.00	18870.18
1937.00	18717.26
1938.00	18661.09
1939.00	18508.18
1940.00	18345.12
1941.00	18133.69
1942.00	17927.72
1943.00	17805.24
1944.00	17678.07
1945.00	17714.73
1946.00	17628.13
1947.00	17562.60
1948.00	17373.02
1949.00	17277.05
1950.00	17137.40
1951.00	17043.78
1952.00	16856.54
1953.00	16753.55
1954.00	16714.55
1955.00	16650.57
1956.00	16411.06
1957.00	16161.40
1958.00	16062.32
1959.00	15982.74
1960.00	15882.88
1961.00	15769.75
1962.00	15665.21
1963.00	15597.33
1964.00	15543.50
1965.00	15570.80
1966.00	15357.03
1967.00	15148.73
1968.00	14977.87
1969.00	14989.57
1970.00	14959.14
1971.00	14843.68
1972.00	14837.44
1973.00	14766.44
1974.00	14719.63
1975.00	14556.57
1976.00	14412.24
1977.00	14249.96
1978.00	14165.70
1979.00	14056.48
1980.00	13939.45
1981.00	13774.83
1982.00	13775.61
1983.00	13722.56
1984.00	13606.31
1985.00	13459.64
1986.00	13310.63
1987.00	13264.60
1988.00	13159.27
1989.00	13138.21
1990.00	13051.61
1991.00	12990.75
1992.00	12890.89
1993.00	12768.40
1994.00	12617.83
1995.00	12574.14
1996.00	12534.35
1997.00	12528.11
1998.00	12457.11
1999.00	12339.30
2000.00	12257.39
2001.00	12152.84
2002.00	12091.21
2003.00	12013.97
2004.00	11910.21
2005.00	11812.68
2006.00	11723.74
2007.00	11676.15
2008.00	11581.75
2009.00	11506.85
2010.00	11441.32
2011.00	11465.50
2012.00	11462.38
2013.00	11403.09
2014.00	11307.91
2015.00	11126.91
2016.00	11026.26
2017.00	11002.08
2018.00	10991.16
2019.00	10982.57
2020.00	10953.71
2021.00	10900.66
2022.00	10886.61
2023.00	10753.98
2024.00	10707.95
2025.00	10543.33
2026.00	10508.23
2027.00	10446.59
2028.00	10381.06
2029.00	10356.87
2030.00	10292.12
2031.00	10264.03
2032.00	10235.94
2033.00	10251.55
2034.00	10200.83
2035.00	10030.76
2036.00	9909.83
2037.00	9957.42
2038.00	9965.22
2039.00	9948.06
2040.00	9778.76
2041.00	9766.28
2042.00	9628.18
2043.00	9575.13
2044.00	9450.30
2045.00	9456.54
2046.00	9444.84
2047.00	9430.02
>>>>>End Processed Spectral Data<<<<<
