SpectraSuite Data File
++++++++++++++++++++++++++++++++++++
Date: Thu Nov 16 14:09:42 EST 2017
User: cheriyan
Dark Spectrum Present: No
Reference Spectrum Present: No
Number of Sampled Component Spectra: 1
Spectrometers: USB2+H05261
Integration Time (usec): 100000 (USB2+H05261)
Spectra Averaged: 1 (USB2+H05261)
Boxcar Smoothing: 1 (USB2+H05261)
Correct for Electrical Dark: No (USB2+H05261)
Strobe/Lamp Enabled: No (USB2+H05261)
Correct for Detector Non-linearity: No (USB2+H05261)
Correct for Stray Light: No (USB2+H05261)
Number of Pixels in Processed Spectrum: 2048
>>>>>Begin Processed Spectral Data<<<<<
0.00	402.57
1.00	402.57
2.00	351.86
3.00	286.33
4.00	254.34
5.00	258.24
6.00	266.04
7.00	255.12
8.00	224.69
9.00	210.65
10.00	200.51
11.00	223.13
12.00	230.15
13.00	220.79
14.00	223.13
15.00	227.03
16.00	244.20
17.00	253.56
18.00	273.84
19.00	264.48
20.00	261.36
21.00	262.92
22.00	269.94
23.00	304.27
24.00	384.63
25.00	525.84
26.00	605.42
27.00	641.31
28.00	618.68
29.00	649.89
30.00	670.95
31.00	688.12
32.00	683.44
33.00	709.18
34.00	716.98
35.00	719.32
36.00	697.48
37.00	713.86
38.00	710.74
39.00	709.96
40.00	716.98
41.00	711.52
42.00	754.43
43.00	731.81
44.00	768.48
45.00	723.23
46.00	750.53
47.00	736.49
48.00	773.16
49.00	753.65
50.00	781.74
51.00	766.92
52.00	786.42
53.00	742.73
54.00	731.81
55.00	721.67
56.00	739.61
57.00	769.26
58.00	796.56
59.00	798.90
60.00	817.63
61.00	800.46
62.00	814.51
63.00	777.84
64.00	761.45
65.00	777.06
66.00	782.52
67.00	831.67
68.00	813.73
69.00	799.68
70.00	786.42
71.00	806.70
72.00	836.35
73.00	815.29
74.00	783.30
75.00	773.16
76.00	783.30
77.00	805.92
78.00	805.92
79.00	815.29
80.00	824.65
81.00	848.05
82.00	869.90
83.00	851.95
84.00	848.83
85.00	834.79
86.00	871.46
87.00	862.10
88.00	853.52
89.00	856.64
90.00	876.92
91.00	917.49
92.00	879.26
93.00	866.00
94.00	852.74
95.00	863.66
96.00	873.80
97.00	882.38
98.00	915.15
99.00	902.67
100.00	901.89
101.00	876.14
102.00	894.08
103.00	898.77
104.00	947.92
105.00	955.72
106.00	965.08
107.00	943.24
108.00	931.53
109.00	931.53
110.00	939.34
111.00	971.32
112.00	975.22
113.00	985.37
114.00	993.17
115.00	979.12
116.00	979.90
117.00	979.12
118.00	1007.21
119.00	1019.69
120.00	1025.93
121.00	1076.65
122.00	1084.45
123.00	1100.05
124.00	1100.83
125.00	1078.99
126.00	1086.79
127.00	1039.20
128.00	1058.70
129.00	1050.90
130.00	1065.72
131.00	1085.23
132.00	1088.35
133.00	1100.83
134.00	1082.11
135.00	1077.43
136.00	1075.09
137.00	1093.03
138.00	1091.47
139.00	1086.79
140.00	1068.84
141.00	1086.79
142.00	1071.97
143.00	1099.27
144.00	1093.81
145.00	1128.14
146.00	1146.08
147.00	1181.19
148.00	1171.83
149.00	1181.19
150.00	1148.42
151.00	1183.53
152.00	1185.87
153.00	1223.32
154.00	1238.92
155.00	1263.89
156.00	1268.57
157.00	1271.69
158.00	1222.54
159.00	1231.90
160.00	1199.13
161.00	1252.97
162.00	1274.81
163.00	1282.61
164.00	1264.67
165.00	1242.04
166.00	1288.85
167.00	1306.80
168.00	1307.58
169.00	1285.73
170.00	1268.57
171.00	1298.22
172.00	1316.94
173.00	1364.53
174.00	1375.45
175.00	1383.26
176.00	1366.09
177.00	1365.31
178.00	1378.58
179.00	1377.02
180.00	1375.45
181.00	1380.14
182.00	1402.76
183.00	1437.87
184.00	1432.41
185.00	1414.46
186.00	1410.56
187.00	1413.68
188.00	1459.71
189.00	1445.67
190.00	1445.67
191.00	1426.17
192.00	1438.65
193.00	1451.13
194.00	1476.10
195.00	1481.56
196.00	1531.49
197.00	1567.38
198.00	1596.25
199.00	1587.66
200.00	1560.36
201.00	1516.67
202.00	1501.84
203.00	1487.80
204.00	1494.04
205.00	1482.34
206.00	1495.60
207.00	1526.81
208.00	1571.28
209.00	1617.31
210.00	1665.68
211.00	1671.92
212.00	1640.72
213.00	1628.23
214.00	1636.81
215.00	1637.59
216.00	1636.03
217.00	1621.21
218.00	1651.64
219.00	1687.53
220.00	1735.12
221.00	1761.64
222.00	1742.92
223.00	1735.12
224.00	1750.72
225.00	1774.91
226.00	1767.88
227.00	1755.40
228.00	1746.04
229.00	1782.71
230.00	1785.83
231.00	1803.77
232.00	1788.95
233.00	1812.35
234.00	1813.14
235.00	1834.20
236.00	1816.26
237.00	1838.10
238.00	1834.98
239.00	1862.29
240.00	1869.31
241.00	1909.10
242.00	1970.73
243.00	1984.77
244.00	1980.09
245.00	1951.23
246.00	1975.41
247.00	1990.24
248.00	1994.14
249.00	1987.90
250.00	1999.60
251.00	2040.95
252.00	2092.44
253.00	2108.04
254.00	2104.92
255.00	2126.77
256.00	2151.73
257.00	2154.07
258.00	2144.71
259.00	2135.35
260.00	2136.91
261.00	2161.09
262.00	2186.06
263.00	2260.96
264.00	2248.47
265.00	2245.35
266.00	2182.94
267.00	2172.02
268.00	2186.06
269.00	2222.73
270.00	2294.51
271.00	2310.11
272.00	2362.38
273.00	2364.72
274.00	2392.03
275.00	2421.67
276.00	2431.04
277.00	2428.70
278.00	2391.25
279.00	2363.94
280.00	2413.87
281.00	2458.34
282.00	2498.91
283.00	2486.43
284.00	2496.57
285.00	2509.83
286.00	2525.44
287.00	2508.27
288.00	2476.29
289.00	2499.69
290.00	2535.58
291.00	2590.97
292.00	2558.99
293.00	2534.80
294.00	2530.90
295.00	2556.65
296.00	2579.27
297.00	2573.81
298.00	2612.82
299.00	2593.31
300.00	2604.24
301.00	2579.27
302.00	2602.68
303.00	2665.87
304.00	2697.08
305.00	2734.53
306.00	2688.50
307.00	2667.43
308.00	2652.61
309.00	2637.78
310.00	2618.28
311.00	2633.10
312.00	2656.51
313.00	2711.90
314.00	2694.74
315.00	2752.47
316.00	2758.71
317.00	2780.56
318.00	2774.32
319.00	2779.78
320.00	2830.49
321.00	2816.44
322.00	2824.25
323.00	2818.00
324.00	2848.43
325.00	2868.72
326.00	2871.06
327.00	2909.29
328.00	2931.13
329.00	2966.24
330.00	2993.55
331.00	2998.23
332.00	2989.64
333.00	2922.55
334.00	2943.61
335.00	2992.76
336.00	3072.34
337.00	3077.80
338.00	3057.52
339.00	3032.55
340.00	3066.10
341.00	3081.71
342.00	3100.43
343.00	3080.93
344.00	3088.73
345.00	3087.17
346.00	3103.55
347.00	3123.05
348.00	3140.22
349.00	3172.21
350.00	3178.45
351.00	3204.19
352.00	3184.69
353.00	3244.76
354.00	3222.14
355.00	3276.75
356.00	3250.22
357.00	3336.82
358.00	3347.75
359.00	3395.34
360.00	3385.98
361.00	3419.52
362.00	3434.35
363.00	3454.63
364.00	3437.47
365.00	3375.83
366.00	3352.43
367.00	3388.32
368.00	3495.20
369.00	3553.71
370.00	3532.65
371.00	3468.67
372.00	3533.43
373.00	3544.35
374.00	3610.67
375.00	3541.23
376.00	3551.37
377.00	3538.89
378.00	3572.44
379.00	3623.15
380.00	3684.00
381.00	3697.27
382.00	3736.28
383.00	3729.25
384.00	3729.25
385.00	3733.15
386.00	3748.76
387.00	3811.95
388.00	3840.04
389.00	3917.28
390.00	3965.65
391.00	4001.54
392.00	3999.20
393.00	4010.90
394.00	4007.00
395.00	4032.74
396.00	4028.84
397.00	4065.51
398.00	4141.19
399.00	4187.22
400.00	4225.45
401.00	4213.74
402.00	4253.53
403.00	4280.06
404.00	4292.54
405.00	4292.54
406.00	4297.22
407.00	4280.84
408.00	4279.28
409.00	4275.38
410.00	4287.86
411.00	4318.29
412.00	4336.23
413.00	4380.70
414.00	4403.33
415.00	4422.05
416.00	4471.20
417.00	4488.37
418.00	4531.28
419.00	4488.37
420.00	4516.45
421.00	4514.11
422.00	4505.53
423.00	4481.35
424.00	4523.48
425.00	4578.87
426.00	4592.13
427.00	4546.88
428.00	4539.86
429.00	4545.32
430.00	4523.48
431.00	4506.31
432.00	4473.54
433.00	4547.66
434.00	4616.32
435.00	4681.07
436.00	4699.80
437.00	4664.69
438.00	4690.43
439.00	4746.61
440.00	4848.81
441.00	4899.52
442.00	4862.85
443.00	4830.09
444.00	4826.96
445.00	4880.80
446.00	4915.12
447.00	4924.49
448.00	4901.86
449.00	4858.17
450.00	4913.56
451.00	4933.07
452.00	4974.42
453.00	4939.31
454.00	4968.96
455.00	4991.58
456.00	5076.62
457.00	5113.29
458.00	5165.56
459.00	5123.43
460.00	5175.70
461.00	5138.26
462.00	5164.00
463.00	5171.80
464.00	5246.70
465.00	5344.22
466.00	5317.70
467.00	5388.69
468.00	5323.16
469.00	5395.72
470.00	5384.01
471.00	5461.25
472.00	5477.63
473.00	5473.73
474.00	5522.10
475.00	5508.06
476.00	5513.52
477.00	5511.96
478.00	5575.16
479.00	5668.00
480.00	5597.00
481.00	5610.26
482.00	5611.82
483.00	5676.58
484.00	5715.59
485.00	5717.93
486.00	5770.98
487.00	5698.42
488.00	5724.95
489.00	5739.77
490.00	5850.56
491.00	5892.69
492.00	5926.24
493.00	5949.64
494.00	5960.56
495.00	5990.99
496.00	6033.90
497.00	6128.30
498.00	6142.35
499.00	6153.27
500.00	6101.78
501.00	6130.64
502.00	6140.79
503.00	6118.94
504.00	6132.20
505.00	6134.54
506.00	6241.43
507.00	6306.96
508.00	6345.19
509.00	6339.73
510.00	6327.25
511.00	6361.58
512.00	6356.11
513.00	6378.74
514.00	6442.71
515.00	6556.62
516.00	6617.47
517.00	6579.25
518.00	6526.97
519.00	6517.61
520.00	6610.45
521.00	6699.39
522.00	6729.04
523.00	6718.12
524.00	6744.64
525.00	6826.56
526.00	6820.32
527.00	6772.73
528.00	6712.66
529.00	6777.41
530.00	6811.74
531.00	6867.91
532.00	6865.57
533.00	6885.08
534.00	6888.20
535.00	6940.47
536.00	6927.21
537.00	6930.33
538.00	6947.49
539.00	6974.80
540.00	7009.90
541.00	6956.85
542.00	7042.67
543.00	7105.87
544.00	7194.81
545.00	7236.94
546.00	7258.78
547.00	7293.11
548.00	7296.23
549.00	7366.45
550.00	7422.62
551.00	7446.80
552.00	7416.38
553.00	7412.48
554.00	7413.26
555.00	7483.47
556.00	7486.59
557.00	7558.37
558.00	7567.73
559.00	7705.82
560.00	7784.62
561.00	7847.04
562.00	7769.02
563.00	7777.60
564.00	7765.12
565.00	7849.38
566.00	7974.99
567.00	8056.90
568.00	8139.60
569.00	8035.06
570.00	8129.46
571.00	8250.39
572.00	8353.37
573.00	8362.73
574.00	8292.52
575.00	8366.64
576.00	8438.41
577.00	8554.66
578.00	8642.04
579.00	8593.67
580.00	8606.15
581.00	8612.39
582.00	8754.38
583.00	8816.80
584.00	8884.67
585.00	8964.25
586.00	9006.38
587.00	8973.61
588.00	8894.04
589.00	8909.64
590.00	9082.84
591.00	9213.91
592.00	9323.91
593.00	9401.15
594.00	9557.97
595.00	9671.09
596.00	9716.34
597.00	9836.49
598.00	9923.09
599.00	9989.41
600.00	9989.41
601.00	10008.13
602.00	10090.05
603.00	10179.77
604.00	10298.36
605.00	10464.54
606.00	10554.26
607.00	10622.13
608.00	10611.99
609.00	10653.34
610.00	10640.08
611.00	10563.62
612.00	10560.50
613.00	10719.65
614.00	10913.92
615.00	10986.47
616.00	11076.98
617.00	11133.93
618.00	11309.47
619.00	11395.29
620.00	11583.31
621.00	11687.07
622.00	11761.19
623.00	11845.45
624.00	11941.41
625.00	12068.58
626.00	12110.71
627.00	12187.17
628.00	12245.68
629.00	12405.62
630.00	12538.25
631.00	12585.84
632.00	12638.11
633.00	12813.65
634.00	13040.68
635.00	13181.12
636.00	13156.15
637.00	13310.63
638.00	13398.01
639.00	13467.44
640.00	13344.95
641.00	13378.50
642.00	13498.65
643.00	13578.23
644.00	13690.57
645.00	13806.82
646.00	13993.28
647.00	13978.46
648.00	14033.07
649.00	14172.72
650.00	14387.27
651.00	14587.78
652.00	14672.04
653.00	14792.19
654.00	14877.23
655.00	14937.30
656.00	15013.76
657.00	15059.01
658.00	15140.15
659.00	15268.09
660.00	15374.20
661.00	15470.16
662.00	15658.18
663.00	15697.97
664.00	15878.97
665.00	15803.30
666.00	16092.74
667.00	16190.27
668.00	16368.93
669.00	16409.50
670.00	16483.61
671.00	16613.12
672.00	16593.62
673.00	16665.39
674.00	16776.96
675.00	16854.20
676.00	16791.00
677.00	16791.00
678.00	16897.89
679.00	17244.29
680.00	17437.77
681.00	17629.70
682.00	17765.45
683.00	17887.93
684.00	17937.87
685.00	18054.11
686.00	18073.62
687.00	18310.79
688.00	18439.52
689.00	18562.79
690.00	18600.24
691.00	18609.60
692.00	18737.55
693.00	18816.35
694.00	18951.32
695.00	19033.24
696.00	19100.33
697.00	19114.38
698.00	19236.08
699.00	19260.27
700.00	19360.13
701.00	19555.96
702.00	19747.10
703.00	19842.28
704.00	19818.88
705.00	19924.20
706.00	20144.99
707.00	20306.49
708.00	20477.35
709.00	20574.87
710.00	20635.72
711.00	20677.07
712.00	20760.55
713.00	21039.86
714.00	21195.89
715.00	21215.40
716.00	21138.16
717.00	21290.29
718.00	21426.04
719.00	21417.46
720.00	21403.42
721.00	21384.69
722.00	21616.41
723.00	21708.47
724.00	21896.49
725.00	21909.75
726.00	21982.31
727.00	22168.77
728.00	22232.75
729.00	22299.84
730.00	22213.24
731.00	22214.02
732.00	22181.26
733.00	22157.85
734.00	22215.58
735.00	22470.70
736.00	22597.87
737.00	22845.19
738.00	22758.59
739.00	22941.93
740.00	22885.76
741.00	23122.93
742.00	23116.69
743.00	23297.69
744.00	23319.54
745.00	23503.66
746.00	23568.41
747.00	23691.68
748.00	23761.12
749.00	23919.49
750.00	24004.53
751.00	23953.82
752.00	23986.59
753.00	23995.95
754.00	24188.66
755.00	24081.77
756.00	24323.63
757.00	24332.21
758.00	24472.64
759.00	24386.04
760.00	24559.24
761.00	24796.42
762.00	24961.03
763.00	24953.23
764.00	24974.30
765.00	25082.74
766.00	25316.79
767.00	25435.38
768.00	25463.47
769.00	25500.14
770.00	25674.12
771.00	25844.20
772.00	26013.49
773.00	26076.69
774.00	26112.58
775.00	26152.37
776.00	26193.72
777.00	26369.26
778.00	26261.59
779.00	26300.60
780.00	26280.32
781.00	26590.83
782.00	26824.88
783.00	26998.86
784.00	27051.91
785.00	26980.92
786.00	27005.10
787.00	27186.88
788.00	27377.25
789.00	27469.31
790.00	27342.92
791.00	27354.62
792.00	27381.15
793.00	27478.67
794.00	27566.83
795.00	27504.42
796.00	27745.49
797.00	27935.07
798.00	28264.31
799.00	28284.59
800.00	28348.57
801.00	28410.98
802.00	28514.75
803.00	28342.33
804.00	28371.19
805.00	28446.09
806.00	28819.02
807.00	28751.92
808.00	28795.61
809.00	28830.72
810.00	29176.34
811.00	29473.59
812.00	29588.27
813.00	29703.74
814.00	29665.51
815.00	29766.15
816.00	29894.10
817.00	30004.11
818.00	30040.78
819.00	30071.98
820.00	30042.34
821.00	30176.53
822.00	30147.66
823.00	30225.68
824.00	30118.79
825.00	30015.03
826.00	30046.24
827.00	30306.82
828.00	30516.68
829.00	30629.81
830.00	30696.13
831.00	30811.59
832.00	30976.21
833.00	30949.68
834.00	31047.21
835.00	30993.37
836.00	30998.05
837.00	31101.04
838.00	31383.46
839.00	31607.37
840.00	31668.23
841.00	31697.10
842.00	31761.85
843.00	31944.41
844.00	32013.07
845.00	32290.81
846.00	32418.76
847.00	32431.24
848.00	32284.57
849.00	32259.60
850.00	32506.14
851.00	32562.31
852.00	32472.59
853.00	32311.10
854.00	32383.65
855.00	32552.17
856.00	32677.78
857.00	32822.89
858.00	32871.26
859.00	32889.99
860.00	32865.80
861.00	32939.14
862.00	33212.20
863.00	33263.69
864.00	33312.06
865.00	33292.56
866.00	33507.89
867.00	33746.62
868.00	33935.43
869.00	34148.42
870.00	34295.87
871.00	34336.44
872.00	34270.12
873.00	34272.46
874.00	34244.38
875.00	34278.71
876.00	34334.88
877.00	34256.08
878.00	34358.28
879.00	34406.66
880.00	34664.11
881.00	34555.67
882.00	34309.91
883.00	34290.41
884.00	34384.81
885.00	34514.32
886.00	34681.28
887.00	34788.94
888.00	35112.72
889.00	35111.94
890.00	35356.13
891.00	35267.97
892.00	35450.53
893.00	35385.78
894.00	35544.94
895.00	35493.44
896.00	35653.38
897.00	35647.92
898.00	35604.23
899.00	35573.80
900.00	35804.74
901.00	36086.38
902.00	36325.89
903.00	36499.09
904.00	36577.11
905.00	36588.03
906.00	36540.44
907.00	36495.97
908.00	36330.58
909.00	36603.64
910.00	36456.18
911.00	36510.80
912.00	36138.65
913.00	36372.71
914.00	36344.62
915.00	36463.21
916.00	36443.70
917.00	36774.50
918.00	36885.28
919.00	37015.57
920.00	36936.77
921.00	37031.96
922.00	37213.74
923.00	37355.73
924.00	37539.07
925.00	37403.32
926.00	37420.48
927.00	37284.73
928.00	37259.77
929.00	37538.29
930.00	37683.41
931.00	37992.36
932.00	38098.46
933.00	38285.70
934.00	38281.80
935.00	38003.28
936.00	38057.11
937.00	38178.82
938.00	38139.81
939.00	38022.78
940.00	38053.99
941.00	38139.81
942.00	38285.70
943.00	38230.31
944.00	38493.23
945.00	38455.00
946.00	38693.74
947.00	38660.97
948.00	38781.90
949.00	38588.41
950.00	38550.96
951.00	38439.40
952.00	38325.49
953.00	38281.80
954.00	38274.78
955.00	38561.11
956.00	38848.21
957.00	39206.31
958.00	39441.15
959.00	39649.46
960.00	39693.15
961.00	39618.25
962.00	39533.99
963.00	39666.62
964.00	39916.28
965.00	40030.96
966.00	40067.63
967.00	40200.26
968.00	40354.74
969.00	40477.22
970.00	40688.65
971.00	40911.00
972.00	40983.56
973.00	40795.54
974.00	40718.30
975.00	40661.35
976.00	40712.84
977.00	40498.29
978.00	40204.16
979.00	40031.74
980.00	40042.67
981.00	40454.60
982.00	40474.10
983.00	40650.42
984.00	40752.63
985.00	41032.71
986.00	41156.76
987.00	41123.21
988.00	41251.16
989.00	41196.55
990.00	41207.47
991.00	41053.78
992.00	41120.87
993.00	40964.06
994.00	41201.23
995.00	41500.82
996.00	41748.92
997.00	41814.45
998.00	41979.85
999.00	42097.66
1000.00	42214.68
1001.00	42387.88
1002.00	42550.94
1003.00	42503.35
1004.00	42323.91
1005.00	42486.18
1006.00	42383.20
1007.00	42364.48
1008.00	42382.42
1009.00	42546.26
1010.00	42516.61
1011.00	42320.79
1012.00	42441.71
1013.00	42478.38
1014.00	42678.89
1015.00	42661.72
1016.00	42778.75
1017.00	42997.20
1018.00	43405.23
1019.00	43524.60
1020.00	43358.42
1021.00	43056.50
1022.00	42973.80
1023.00	42735.06
1024.00	42770.17
1025.00	43041.67
1026.00	43551.13
1027.00	43761.78
1028.00	43959.16
1029.00	43918.59
1030.00	43917.81
1031.00	43951.36
1032.00	44132.36
1033.00	44404.64
1034.00	44266.55
1035.00	44195.56
1036.00	43975.55
1037.00	43895.19
1038.00	44087.11
1039.00	44165.13
1040.00	44518.55
1041.00	44439.75
1042.00	44604.37
1043.00	44615.29
1044.00	44818.14
1045.00	44960.91
1046.00	45052.19
1047.00	44848.57
1048.00	44675.37
1049.00	44559.12
1050.00	44824.38
1051.00	45198.87
1052.00	45365.82
1053.00	45390.01
1054.00	45250.36
1055.00	45274.54
1056.00	45344.76
1057.00	45512.50
1058.00	45691.16
1059.00	45645.91
1060.00	45599.10
1061.00	45404.83
1062.00	45473.49
1063.00	45550.73
1064.00	45649.03
1065.00	45769.18
1066.00	45821.45
1067.00	46030.54
1068.00	46017.27
1069.00	45914.29
1070.00	45581.93
1071.00	45435.26
1072.00	45524.20
1073.00	45959.54
1074.00	46236.50
1075.00	46356.65
1076.00	46225.58
1077.00	46341.83
1078.00	46348.07
1079.00	46610.99
1080.00	46353.53
1081.00	46418.28
1082.00	46327.00
1083.00	46461.19
1084.00	46555.60
1085.00	46554.82
1086.00	46767.80
1087.00	46851.28
1088.00	46802.91
1089.00	46838.02
1090.00	46910.58
1091.00	47086.12
1092.00	47003.42
1093.00	46848.94
1094.00	47005.76
1095.00	47274.92
1096.00	47526.14
1097.00	47403.65
1098.00	47267.12
1099.00	47299.11
1100.00	47235.13
1101.00	47362.30
1102.00	47383.37
1103.00	47554.22
1104.00	47440.32
1105.00	47365.42
1106.00	47480.89
1107.00	47481.67
1108.00	47689.98
1109.00	47641.60
1110.00	48027.79
1111.00	47923.25
1112.00	47973.96
1113.00	47689.20
1114.00	47644.73
1115.00	47575.29
1116.00	47628.34
1117.00	47652.53
1118.00	47790.62
1119.00	47852.25
1120.00	47899.84
1121.00	47878.00
1122.00	47778.92
1123.00	47603.38
1124.00	47370.10
1125.00	47398.19
1126.00	47689.98
1127.00	48049.64
1128.00	48166.66
1129.00	47966.94
1130.00	47880.34
1131.00	47842.11
1132.00	48196.31
1133.00	48238.44
1134.00	48211.92
1135.00	47907.65
1136.00	48006.73
1137.00	48164.32
1138.00	48331.28
1139.00	48272.77
1140.00	48296.95
1141.00	48415.54
1142.00	48429.58
1143.00	48410.08
1144.00	48238.44
1145.00	48299.29
1146.00	48437.39
1147.00	48547.39
1148.00	48401.50
1149.00	48332.84
1150.00	48416.32
1151.00	48683.14
1152.00	48868.83
1153.00	49086.50
1154.00	48988.97
1155.00	48788.47
1156.00	48535.69
1157.00	48510.72
1158.00	48547.39
1159.00	48743.22
1160.00	48996.77
1161.00	49176.22
1162.00	49253.45
1163.00	49252.67
1164.00	49200.40
1165.00	49118.48
1166.00	49030.32
1167.00	49018.62
1168.00	48994.43
1169.00	48843.08
1170.00	48740.10
1171.00	48584.84
1172.00	48612.93
1173.00	48658.18
1174.00	48820.45
1175.00	48943.72
1176.00	48985.07
1177.00	48800.17
1178.00	48697.19
1179.00	48715.91
1180.00	48984.29
1181.00	49056.07
1182.00	49312.75
1183.00	49396.23
1184.00	49620.92
1185.00	49607.65
1186.00	49583.47
1187.00	49666.17
1188.00	49492.97
1189.00	49322.11
1190.00	49108.34
1191.00	49183.24
1192.00	49220.69
1193.00	49133.31
1194.00	49064.65
1195.00	49154.37
1196.00	49342.39
1197.00	49447.72
1198.00	49456.30
1199.00	49411.05
1200.00	49349.42
1201.00	49340.05
1202.00	49307.29
1203.00	49447.72
1204.00	49529.64
1205.00	49742.63
1206.00	49864.33
1207.00	50099.95
1208.00	50023.49
1209.00	49865.89
1210.00	49496.87
1211.00	49417.29
1212.00	49464.10
1213.00	49491.41
1214.00	49441.48
1215.00	49287.00
1216.00	49447.72
1217.00	49521.05
1218.00	49669.29
1219.00	49676.31
1220.00	49674.75
1221.00	49432.89
1222.00	49366.58
1223.00	49363.46
1224.00	49457.08
1225.00	49414.17
1226.00	49439.14
1227.00	49545.24
1228.00	49588.15
1229.00	49606.87
1230.00	49648.22
1231.00	49865.89
1232.00	49950.15
1233.00	50051.58
1234.00	50069.52
1235.00	50168.60
1236.00	50258.32
1237.00	50082.00
1238.00	50089.02
1239.00	50184.99
1240.00	50338.68
1241.00	50387.83
1242.00	50414.36
1243.00	50460.39
1244.00	50555.57
1245.00	50493.16
1246.00	50507.98
1247.00	50640.61
1248.00	50724.09
1249.00	50894.17
1250.00	50629.69
1251.00	50500.18
1252.00	50362.87
1253.00	50447.91
1254.00	50505.64
1255.00	50324.64
1256.00	50370.67
1257.00	50328.54
1258.00	50589.12
1259.00	50440.89
1260.00	50378.47
1261.00	50369.89
1262.00	50564.93
1263.00	50979.21
1264.00	51120.42
1265.00	51231.99
1266.00	51097.80
1267.00	51243.69
1268.00	51387.24
1269.00	51544.84
1270.00	51157.87
1271.00	50917.57
1272.00	50845.02
1273.00	51022.12
1274.00	50996.37
1275.00	50731.89
1276.00	50862.18
1277.00	50877.01
1278.00	51017.44
1279.00	51005.73
1280.00	50997.15
1281.00	51126.66
1282.00	51197.66
1283.00	51374.76
1284.00	51330.29
1285.00	51389.58
1286.00	51376.32
1287.00	51498.81
1288.00	51461.36
1289.00	51562.78
1290.00	51615.05
1291.00	51700.87
1292.00	51757.83
1293.00	51739.10
1294.00	51655.62
1295.00	51605.69
1296.00	51623.64
1297.00	51533.14
1298.00	51504.27
1299.00	51471.50
1300.00	51552.64
1301.00	51731.30
1302.00	51784.35
1303.00	51833.50
1304.00	51656.40
1305.00	51723.50
1306.00	51843.65
1307.00	51852.23
1308.00	51803.86
1309.00	51637.68
1310.00	51692.29
1311.00	51702.43
1312.00	51894.36
1313.00	51888.12
1314.00	52018.41
1315.00	52023.87
1316.00	52226.71
1317.00	52234.52
1318.00	52275.08
1319.00	52193.95
1320.00	52097.98
1321.00	52087.06
1322.00	52127.63
1323.00	52243.88
1324.00	52277.43
1325.00	52296.15
1326.00	52316.43
1327.00	52392.89
1328.00	52577.79
1329.00	52705.74
1330.00	52750.21
1331.00	52662.83
1332.00	52542.69
1333.00	52455.31
1334.00	52414.74
1335.00	52317.99
1336.00	52172.88
1337.00	52188.49
1338.00	52161.18
1339.00	52305.51
1340.00	52242.32
1341.00	52272.74
1342.00	52218.13
1343.00	52331.26
1344.00	52417.86
1345.00	52459.99
1346.00	52375.73
1347.00	52369.49
1348.00	52390.55
1349.00	52431.12
1350.00	52367.93
1351.00	52234.52
1352.00	52119.83
1353.00	52235.30
1354.00	52339.84
1355.00	52415.52
1356.00	52346.86
1357.00	52447.50
1358.00	52538.79
1359.00	52740.07
1360.00	52794.68
1361.00	52782.20
1362.00	52550.49
1363.00	52394.45
1364.00	52410.84
1365.00	52562.19
1366.00	52605.88
1367.00	52652.69
1368.00	52810.29
1369.00	52903.13
1370.00	52843.84
1371.00	52609.78
1372.00	52598.08
1373.00	52673.76
1374.00	52832.91
1375.00	52853.20
1376.00	52846.96
1377.00	52676.88
1378.00	52541.91
1379.00	52571.55
1380.00	52715.11
1381.00	52868.80
1382.00	52805.61
1383.00	52649.57
1384.00	52364.03
1385.00	52225.15
1386.00	52021.53
1387.00	52017.63
1388.00	51896.70
1389.00	51977.06
1390.00	52163.52
1391.00	52268.06
1392.00	52387.43
1393.00	52407.72
1394.00	52559.85
1395.00	52624.60
1396.00	52595.74
1397.00	52431.90
1398.00	52324.24
1399.00	52219.69
1400.00	52328.92
1401.00	52303.17
1402.00	52435.80
1403.00	52414.74
1404.00	52411.62
1405.00	52418.64
1406.00	52570.77
1407.00	52848.52
1408.00	52829.79
1409.00	52682.34
1410.00	52610.56
1411.00	52743.97
1412.00	52882.06
1413.00	52937.46
1414.00	52944.48
1415.00	52944.48
1416.00	52972.56
1417.00	52839.93
1418.00	52731.49
1419.00	52652.69
1420.00	52765.82
1421.00	52740.85
1422.00	52681.56
1423.00	52556.73
1424.00	52644.89
1425.00	52678.44
1426.00	52679.22
1427.00	52694.82
1428.00	52514.60
1429.00	52385.87
1430.00	52378.85
1431.00	52562.19
1432.00	52609.00
1433.00	52470.91
1434.00	52405.37
1435.00	52396.01
1436.00	52278.21
1437.00	52164.30
1438.00	52093.30
1439.00	52287.57
1440.00	52319.56
1441.00	52396.79
1442.00	52205.65
1443.00	52105.01
1444.00	51910.74
1445.00	51971.60
1446.00	52108.91
1447.00	52291.47
1448.00	52194.73
1449.00	52254.80
1450.00	52408.50
1451.00	52669.08
1452.00	52688.58
1453.00	52437.36
1454.00	52260.26
1455.00	52125.29
1456.00	52291.47
1457.00	52455.31
1458.00	52574.67
1459.00	52391.33
1460.00	52279.77
1461.00	52213.45
1462.00	52270.40
1463.00	52261.04
1464.00	52255.58
1465.00	52236.86
1466.00	52160.40
1467.00	52116.71
1468.00	52129.97
1469.00	52268.84
1470.00	52321.12
1471.00	52332.04
1472.00	52264.94
1473.00	52212.67
1474.00	52179.12
1475.00	52099.54
1476.00	52168.20
1477.00	52229.83
1478.00	52303.95
1479.00	52244.66
1480.00	52121.39
1481.00	51986.42
1482.00	51996.56
1483.00	52037.91
1484.00	52009.82
1485.00	51889.68
1486.00	51873.29
1487.00	51680.59
1488.00	51679.03
1489.00	51670.45
1490.00	51889.68
1491.00	51933.37
1492.00	51970.04
1493.00	51877.97
1494.00	51845.99
1495.00	51740.66
1496.00	51909.96
1497.00	51888.90
1498.00	51934.93
1499.00	51863.15
1500.00	51987.98
1501.00	52020.75
1502.00	52128.41
1503.00	51915.42
1504.00	51802.30
1505.00	51675.13
1506.00	51672.79
1507.00	51558.88
1508.00	51551.08
1509.00	51615.05
1510.00	51856.13
1511.00	51927.91
1512.00	52009.04
1513.00	51964.57
1514.00	51806.20
1515.00	51776.55
1516.00	51615.05
1517.00	51671.23
1518.00	51591.65
1519.00	51566.68
1520.00	51515.19
1521.00	51341.99
1522.00	51305.32
1523.00	51406.75
1524.00	51613.49
1525.00	51590.87
1526.00	51406.75
1527.00	51259.29
1528.00	51366.96
1529.00	51279.58
1530.00	51207.80
1531.00	51225.74
1532.00	51245.25
1533.00	51336.53
1534.00	51218.72
1535.00	51420.01
1536.00	51534.70
1537.00	51760.17
1538.00	51765.63
1539.00	51683.71
1540.00	51700.87
1541.00	51646.26
1542.00	51664.21
1543.00	51657.18
1544.00	51661.86
1545.00	51569.02
1546.00	51448.10
1547.00	51318.59
1548.00	51259.29
1549.00	51143.83
1550.00	51210.14
1551.00	51278.02
1552.00	51317.81
1553.00	51311.56
1554.00	51412.99
1555.00	51527.67
1556.00	51611.93
1557.00	51583.07
1558.00	51526.89
1559.00	51357.60
1560.00	51231.99
1561.00	51151.63
1562.00	51145.39
1563.00	51062.69
1564.00	50980.77
1565.00	50921.48
1566.00	50880.91
1567.00	50864.52
1568.00	50788.06
1569.00	50677.28
1570.00	50553.23
1571.00	50478.33
1572.00	50472.87
1573.00	50570.39
1574.00	50654.65
1575.00	50702.24
1576.00	50544.65
1577.00	50497.06
1578.00	50574.30
1579.00	50483.01
1580.00	50522.02
1581.00	50557.13
1582.00	50784.94
1583.00	50820.83
1584.00	50731.89
1585.00	50791.19
1586.00	50621.11
1587.00	50481.45
1588.00	50557.13
1589.00	50719.41
1590.00	50775.58
1591.00	50486.14
1592.00	50447.13
1593.00	50302.79
1594.00	50426.84
1595.00	50317.62
1596.00	50546.99
1597.00	50465.07
1598.00	50526.70
1599.00	50386.27
1600.00	50409.68
1601.00	50355.85
1602.00	50454.93
1603.00	50429.96
1604.00	50656.21
1605.00	50711.61
1606.00	50731.89
1607.00	50367.55
1608.00	50044.55
1609.00	49940.79
1610.00	49954.83
1611.00	50104.63
1612.00	50039.87
1613.00	50096.83
1614.00	50094.49
1615.00	50174.84
1616.00	50172.50
1617.00	50175.62
1618.00	50246.62
1619.00	50330.10
1620.00	50319.18
1621.00	50255.98
1622.00	50413.58
1623.00	50454.15
1624.00	50557.91
1625.00	50371.45
1626.00	50337.90
1627.00	50206.83
1628.00	50072.64
1629.00	50110.09
1630.00	49983.70
1631.00	50198.25
1632.00	50286.41
1633.00	50455.71
1634.00	50523.58
1635.00	50458.83
1636.00	50397.20
1637.00	50349.60
1638.00	50276.27
1639.00	50305.91
1640.00	49997.74
1641.00	49848.73
1642.00	49729.36
1643.00	49893.20
1644.00	49845.61
1645.00	49924.41
1646.00	49916.61
1647.00	49866.67
1648.00	49767.59
1649.00	49531.98
1650.00	49659.93
1651.00	49645.10
1652.00	49874.48
1653.00	49925.97
1654.00	49892.42
1655.00	49692.69
1656.00	49737.16
1657.00	49744.97
1658.00	49844.83
1659.00	49667.73
1660.00	49654.47
1661.00	49522.62
1662.00	49485.17
1663.00	49475.02
1664.00	49696.59
1665.00	49821.42
1666.00	49920.51
1667.00	49761.35
1668.00	49763.69
1669.00	49606.09
1670.00	49656.03
1671.00	49581.91
1672.00	49574.89
1673.00	49547.58
1674.00	49461.76
1675.00	49552.26
1676.00	49534.32
1677.00	49468.78
1678.00	49339.27
1679.00	49221.47
1680.00	49077.13
1681.00	48992.87
1682.00	48865.70
1683.00	48927.34
1684.00	48830.60
1685.00	48998.34
1686.00	49124.72
1687.00	49286.22
1688.00	49152.81
1689.00	48917.98
1690.00	48729.17
1691.00	48675.34
1692.00	48573.92
1693.00	48523.21
1694.00	48356.25
1695.00	48276.67
1696.00	48308.66
1697.00	48460.01
1698.00	48719.81
1699.00	48882.87
1700.00	49008.48
1701.00	49194.16
1702.00	49166.07
1703.00	49119.26
1704.00	48989.75
1705.00	49023.30
1706.00	49024.86
1707.00	48932.80
1708.00	48762.72
1709.00	48768.18
1710.00	48643.35
1711.00	48445.19
1712.00	48042.62
1713.00	47767.99
1714.00	47612.74
1715.00	47724.30
1716.00	47824.95
1717.00	48104.25
1718.00	48071.48
1719.00	47920.91
1720.00	47684.51
1721.00	47431.74
1722.00	47626.78
1723.00	47778.92
1724.00	47953.68
1725.00	47832.75
1726.00	47586.21
1727.00	47508.19
1728.00	47410.67
1729.00	47352.94
1730.00	47417.69
1731.00	47306.91
1732.00	47240.59
1733.00	46643.76
1734.00	46586.02
1735.00	46411.26
1736.00	46711.63
1737.00	46677.30
1738.00	46649.22
1739.00	46468.22
1740.00	46155.36
1741.00	45979.04
1742.00	45752.79
1743.00	45633.42
1744.00	45538.24
1745.00	45436.82
1746.00	45457.88
1747.00	45420.44
1748.00	45492.21
1749.00	45436.04
1750.00	45423.56
1751.00	45264.40
1752.00	45176.24
1753.00	45022.55
1754.00	44849.35
1755.00	44761.19
1756.00	44671.46
1757.00	44584.08
1758.00	44579.40
1759.00	44599.69
1760.00	44729.20
1761.00	44786.15
1762.00	44615.29
1763.00	44339.11
1764.00	43981.79
1765.00	43866.32
1766.00	43874.12
1767.00	43732.13
1768.00	43702.48
1769.00	43640.85
1770.00	43869.44
1771.00	43927.95
1772.00	43837.45
1773.00	43869.44
1774.00	43910.01
1775.00	43887.39
1776.00	43615.88
1777.00	43423.96
1778.00	43490.27
1779.00	43408.36
1780.00	43253.10
1781.00	43094.72
1782.00	43111.11
1783.00	43056.49
1784.00	42933.23
1785.00	42913.72
1786.00	42741.30
1787.00	42590.73
1788.00	42313.76
1789.00	42064.11
1790.00	41725.51
1791.00	41349.46
1792.00	41131.01
1793.00	41100.59
1794.00	41175.48
1795.00	41104.49
1796.00	41124.77
1797.00	40954.69
1798.00	41028.03
1799.00	40796.32
1800.00	40435.88
1801.00	40015.36
1802.00	39952.16
1803.00	39907.69
1804.00	39989.61
1805.00	39759.46
1806.00	39754.00
1807.00	39585.48
1808.00	39419.30
1809.00	39272.63
1810.00	39195.39
1811.00	39097.87
1812.00	39001.91
1813.00	38899.70
1814.00	38902.04
1815.00	38827.15
1816.00	38682.81
1817.00	38449.54
1818.00	38201.44
1819.00	37990.80
1820.00	37871.43
1821.00	37830.86
1822.00	37715.39
1823.00	37491.48
1824.00	37205.16
1825.00	37041.32
1826.00	36957.06
1827.00	36928.97
1828.00	36963.30
1829.00	36916.49
1830.00	36439.02
1831.00	36182.34
1832.00	35961.55
1833.00	35991.20
1834.00	35767.29
1835.00	35502.81
1836.00	35205.56
1837.00	35051.86
1838.00	34934.84
1839.00	34927.03
1840.00	34701.56
1841.00	34522.90
1842.00	34372.33
1843.00	34100.05
1844.00	33721.66
1845.00	33460.30
1846.00	33212.20
1847.00	33131.06
1848.00	32894.67
1849.00	32765.16
1850.00	32605.22
1851.00	32429.68
1852.00	32243.22
1853.00	32179.25
1854.00	32038.81
1855.00	31906.96
1856.00	31672.13
1857.00	31528.58
1858.00	31268.78
1859.00	31143.17
1860.00	30970.75
1861.00	30980.89
1862.00	30764.78
1863.00	30734.35
1864.00	30655.56
1865.00	30520.59
1866.00	30384.83
1867.00	30102.41
1868.00	29839.49
1869.00	29440.04
1870.00	29177.12
1871.00	28980.51
1872.00	28836.96
1873.00	28623.19
1874.00	28507.73
1875.00	28257.29
1876.00	28198.77
1877.00	28003.73
1878.00	27844.57
1879.00	27678.40
1880.00	27412.35
1881.00	27168.16
1882.00	26859.21
1883.00	26636.86
1884.00	26527.63
1885.00	26334.93
1886.00	26248.33
1887.00	26164.85
1888.00	26152.37
1889.00	25979.95
1890.00	25713.13
1891.00	25630.43
1892.00	25452.55
1893.00	25437.72
1894.00	25145.16
1895.00	25023.45
1896.00	24814.36
1897.00	24589.67
1898.00	24379.80
1899.00	24227.67
1900.00	24210.50
1901.00	24131.70
1902.00	24009.22
1903.00	23786.86
1904.00	23711.97
1905.00	23584.02
1906.00	23484.16
1907.00	23263.36
1908.00	23104.99
1909.00	22915.40
1910.00	22828.81
1911.00	22574.47
1912.00	22323.25
1913.00	22141.47
1914.00	21996.35
1915.00	21898.05
1916.00	21724.85
1917.00	21616.41
1918.00	21482.22
1919.00	21317.60
1920.00	21084.33
1921.00	20900.98
1922.00	20710.62
1923.00	20638.84
1924.00	20561.61
1925.00	20539.76
1926.00	20431.32
1927.00	20227.69
1928.00	20031.08
1929.00	19878.17
1930.00	19828.24
1931.00	19652.70
1932.00	19454.53
1933.00	19243.10
1934.00	19203.32
1935.00	19180.69
1936.00	19104.23
1937.00	18798.40
1938.00	18653.29
1939.00	18506.62
1940.00	18479.31
1941.00	18302.99
1942.00	18208.59
1943.00	18145.39
1944.00	18027.59
1945.00	17864.53
1946.00	17685.09
1947.00	17534.51
1948.00	17399.54
1949.00	17268.47
1950.00	17143.64
1951.00	17082.79
1952.00	16989.95
1953.00	16904.13
1954.00	16760.58
1955.00	16666.17
1956.00	16531.98
1957.00	16343.18
1958.00	16173.88
1959.00	15999.12
1960.00	15844.65
1961.00	15809.54
1962.00	15804.86
1963.00	15705.77
1964.00	15627.76
1965.00	15568.46
1966.00	15567.68
1967.00	15371.08
1968.00	15221.28
1969.00	15046.52
1970.00	14921.70
1971.00	14802.33
1972.00	14712.61
1973.00	14632.25
1974.00	14602.60
1975.00	14580.76
1976.00	14450.47
1977.00	14318.62
1978.00	14219.53
1979.00	14194.57
1980.00	13995.62
1981.00	13855.97
1982.00	13767.03
1983.00	13683.55
1984.00	13628.16
1985.00	13472.12
1986.00	13505.67
1987.00	13398.79
1988.00	13330.13
1989.00	13252.11
1990.00	13185.02
1991.00	13128.06
1992.00	13008.70
1993.00	12899.47
1994.00	12773.86
1995.00	12666.98
1996.00	12549.95
1997.00	12446.19
1998.00	12396.26
1999.00	12341.64
2000.00	12320.58
2001.00	12166.88
2002.00	12102.91
2003.00	12049.08
2004.00	12020.99
2005.00	11880.56
2006.00	11726.86
2007.00	11687.07
2008.00	11701.12
2009.00	11618.42
2010.00	11487.35
2011.00	11451.46
2012.00	11545.86
2013.00	11531.82
2014.00	11453.80
2015.00	11273.58
2016.00	11178.40
2017.00	11044.21
2018.00	11017.68
2019.00	10959.17
2020.00	10998.96
2021.00	10953.71
2022.00	10883.49
2023.00	10729.80
2024.00	10680.64
2025.00	10665.04
2026.00	10682.20
2027.00	10516.81
2028.00	10377.94
2029.00	10262.47
2030.00	10290.56
2031.00	10228.14
2032.00	10238.28
2033.00	10235.94
2034.00	10181.33
2035.00	10069.76
2036.00	9920.75
2037.00	9854.44
2038.00	9801.38
2039.00	9731.95
2040.00	9674.99
2041.00	9598.54
2042.00	9630.52
2043.00	9660.95
2044.00	9596.20
2045.00	9532.22
2046.00	9456.54
2047.00	9369.16
>>>>>End Processed Spectral Data<<<<<
