SpectraSuite Data File
++++++++++++++++++++++++++++++++++++
Date: Thu Nov 16 14:13:14 EST 2017
User: cheriyan
Dark Spectrum Present: No
Reference Spectrum Present: No
Number of Sampled Component Spectra: 1
Spectrometers: USB2+H05261
Integration Time (usec): 100000 (USB2+H05261)
Spectra Averaged: 1 (USB2+H05261)
Boxcar Smoothing: 1 (USB2+H05261)
Correct for Electrical Dark: No (USB2+H05261)
Strobe/Lamp Enabled: No (USB2+H05261)
Correct for Detector Non-linearity: No (USB2+H05261)
Correct for Stray Light: No (USB2+H05261)
Number of Pixels in Processed Spectrum: 2048
>>>>>Begin Processed Spectral Data<<<<<
0.00	344.06
1.00	344.06
2.00	330.02
3.00	297.25
4.00	262.92
5.00	239.51
6.00	241.08
7.00	216.89
8.00	218.45
9.00	211.43
10.00	224.69
11.00	215.33
12.00	212.99
13.00	201.29
14.00	197.39
15.00	196.61
16.00	214.55
17.00	241.86
18.00	252.00
19.00	280.86
20.00	288.67
21.00	313.63
22.00	308.17
23.00	322.21
24.00	405.69
25.00	498.53
26.00	601.52
27.00	637.41
28.00	635.07
29.00	628.82
30.00	605.42
31.00	652.23
32.00	656.13
33.00	669.39
34.00	657.69
35.00	675.63
36.00	696.70
37.00	701.38
38.00	724.01
39.00	724.01
40.00	738.83
41.00	734.15
42.00	770.04
43.00	773.16
44.00	780.96
45.00	763.01
46.00	791.88
47.00	786.42
48.00	773.94
49.00	740.39
50.00	741.95
51.00	771.60
52.00	801.24
53.00	812.95
54.00	800.46
55.00	774.72
56.00	764.57
57.00	756.77
58.00	755.21
59.00	760.67
60.00	763.01
61.00	791.88
62.00	789.54
63.00	802.80
64.00	770.82
65.00	787.20
66.00	769.26
67.00	793.44
68.00	770.04
69.00	770.04
70.00	758.33
71.00	773.94
72.00	795.78
73.00	826.21
74.00	830.89
75.00	822.31
76.00	809.05
77.00	777.84
78.00	796.56
79.00	800.46
80.00	848.05
81.00	812.95
82.00	826.21
83.00	816.07
84.00	850.39
85.00	850.39
86.00	858.20
87.00	888.62
88.00	901.11
89.00	895.64
90.00	890.18
91.00	889.40
92.00	925.29
93.00	919.05
94.00	899.55
95.00	882.38
96.00	863.66
97.00	891.74
98.00	883.16
99.00	919.05
100.00	925.29
101.00	912.81
102.00	901.11
103.00	895.64
104.00	938.55
105.00	960.40
106.00	961.18
107.00	938.55
108.00	929.97
109.00	932.31
110.00	936.21
111.00	918.27
112.00	921.39
113.00	926.07
114.00	966.64
115.00	990.83
116.00	1015.79
117.00	1015.01
118.00	986.15
119.00	965.08
120.00	965.08
121.00	969.76
122.00	1002.53
123.00	998.63
124.00	1016.57
125.00	1011.11
126.00	1021.25
127.00	1022.81
128.00	1022.03
129.00	1025.93
130.00	1042.32
131.00	1060.26
132.00	1077.43
133.00	1059.48
134.00	1036.08
135.00	1038.42
136.00	1089.91
137.00	1144.52
138.00	1126.58
139.00	1131.26
140.00	1097.71
141.00	1125.02
142.00	1129.70
143.00	1160.13
144.00	1167.15
145.00	1104.73
146.00	1080.55
147.00	1088.35
148.00	1131.26
149.00	1161.69
150.00	1149.98
151.00	1178.07
152.00	1201.48
153.00	1192.11
154.00	1199.91
155.00	1225.66
156.00	1274.81
157.00	1259.99
158.00	1229.56
159.00	1216.30
160.00	1203.04
161.00	1207.72
162.00	1242.04
163.00	1249.07
164.00	1220.98
165.00	1190.55
166.00	1245.16
167.00	1272.47
168.00	1306.02
169.00	1282.61
170.00	1302.12
171.00	1291.98
172.00	1309.14
173.00	1323.18
174.00	1338.79
175.00	1371.55
176.00	1377.02
177.00	1362.19
178.00	1330.20
179.00	1323.18
180.00	1352.05
181.00	1381.70
182.00	1409.00
183.00	1416.80
184.00	1411.34
185.00	1401.98
186.00	1380.92
187.00	1416.02
188.00	1428.51
189.00	1451.91
190.00	1442.55
191.00	1459.71
192.00	1462.83
193.00	1462.83
194.00	1480.78
195.00	1500.28
196.00	1508.09
197.00	1489.36
198.00	1508.09
199.00	1513.55
200.00	1515.11
201.00	1498.72
202.00	1496.38
203.00	1513.55
204.00	1545.53
205.00	1554.12
206.00	1544.75
207.00	1586.10
208.00	1604.05
209.00	1613.41
210.00	1565.82
211.00	1548.65
212.00	1596.25
213.00	1600.93
214.00	1660.22
215.00	1643.06
216.00	1636.81
217.00	1643.06
218.00	1653.98
219.00	1689.87
220.00	1675.82
221.00	1636.03
222.00	1628.23
223.00	1625.89
224.00	1684.41
225.00	1710.93
226.00	1720.29
227.00	1744.48
228.00	1767.88
229.00	1801.43
230.00	1795.19
231.00	1778.81
232.00	1765.54
233.00	1781.93
234.00	1811.57
235.00	1820.16
236.00	1809.23
237.00	1796.75
238.00	1845.12
239.00	1913.78
240.00	1937.96
241.00	1935.62
242.00	1903.64
243.00	1927.82
244.00	1934.84
245.00	1977.75
246.00	1969.95
247.00	1976.97
248.00	1941.08
249.00	1967.61
250.00	1992.58
251.00	2019.88
252.00	2008.18
253.00	2032.37
254.00	2079.96
255.00	2124.43
256.00	2109.60
257.00	2135.35
258.00	2163.44
259.00	2174.36
260.00	2163.44
261.00	2136.13
262.00	2179.04
263.00	2157.97
264.00	2130.67
265.00	2122.87
266.00	2186.06
267.00	2288.26
268.00	2303.87
269.00	2282.02
270.00	2304.65
271.00	2323.37
272.00	2374.08
273.00	2337.42
274.00	2335.07
275.00	2336.63
276.00	2352.24
277.00	2382.67
278.00	2391.25
279.00	2406.07
280.00	2406.07
281.00	2401.39
282.00	2400.61
283.00	2411.53
284.00	2411.53
285.00	2450.54
286.00	2456.78
287.00	2449.76
288.00	2435.72
289.00	2447.42
290.00	2463.02
291.00	2473.17
292.00	2502.81
293.00	2577.71
294.00	2636.22
295.00	2668.99
296.00	2659.63
297.00	2637.78
298.00	2622.96
299.00	2595.65
300.00	2594.87
301.00	2575.37
302.00	2590.19
303.00	2580.05
304.00	2599.56
305.00	2615.94
306.00	2631.54
307.00	2661.97
308.00	2637.78
309.00	2640.12
310.00	2635.44
311.00	2662.75
312.00	2688.50
313.00	2683.81
314.00	2690.06
315.00	2669.77
316.00	2690.06
317.00	2722.82
318.00	2745.45
319.00	2732.19
320.00	2730.62
321.00	2781.34
322.00	2800.84
323.00	2812.54
324.00	2816.44
325.00	2832.05
326.00	2820.35
327.00	2798.50
328.00	2769.63
329.00	2791.48
330.00	2828.15
331.00	2891.34
332.00	2899.92
333.00	2902.26
334.00	2873.40
335.00	2957.66
336.00	2974.04
337.00	3041.92
338.00	2992.76
339.00	3000.57
340.00	3068.44
341.00	3101.99
342.00	3148.02
343.00	3088.73
344.00	3084.83
345.00	3077.02
346.00	3105.11
347.00	3117.59
348.00	3116.81
349.00	3165.18
350.00	3183.91
351.00	3245.54
352.00	3226.04
353.00	3296.25
354.00	3276.75
355.00	3257.25
356.00	3222.92
357.00	3243.98
358.00	3300.94
359.00	3318.88
360.00	3296.25
361.00	3355.55
362.00	3349.31
363.00	3406.26
364.00	3373.49
365.00	3400.02
366.00	3376.61
367.00	3349.31
368.00	3412.50
369.00	3454.63
370.00	3475.70
371.00	3431.23
372.00	3428.88
373.00	3484.28
374.00	3543.57
375.00	3549.81
376.00	3536.55
377.00	3558.39
378.00	3569.32
379.00	3622.37
380.00	3642.65
381.00	3712.87
382.00	3705.07
383.00	3720.67
384.00	3736.28
385.00	3755.00
386.00	3791.67
387.00	3828.34
388.00	3882.17
389.00	3872.81
390.00	3884.51
391.00	3921.18
392.00	3962.53
393.00	4011.68
394.00	4017.14
395.00	4045.23
396.00	4045.23
397.00	4101.40
398.00	4118.56
399.00	4131.05
400.00	4111.54
401.00	4180.98
402.00	4241.83
403.00	4320.63
404.00	4305.81
405.00	4294.10
406.00	4258.99
407.00	4280.84
408.00	4269.92
409.00	4297.22
410.00	4329.99
411.00	4383.82
412.00	4408.79
413.00	4371.34
414.00	4361.20
415.00	4369.78
416.00	4377.58
417.00	4450.92
418.00	4458.72
419.00	4509.43
420.00	4468.86
421.00	4497.73
422.00	4490.71
423.00	4470.42
424.00	4417.37
425.00	4419.71
426.00	4421.27
427.00	4413.47
428.00	4403.33
429.00	4475.10
430.00	4497.73
431.00	4496.17
432.00	4455.60
433.00	4518.01
434.00	4565.61
435.00	4604.61
436.00	4645.96
437.00	4652.98
438.00	4674.05
439.00	4657.67
440.00	4759.09
441.00	4837.11
442.00	4884.70
443.00	4797.32
444.00	4748.17
445.00	4760.65
446.00	4839.45
447.00	4839.45
448.00	4871.44
449.00	4849.59
450.00	4935.41
451.00	4953.35
452.00	4990.02
453.00	4961.16
454.00	4943.21
455.00	4957.25
456.00	5005.63
457.00	5043.85
458.00	5068.82
459.00	5053.22
460.00	5074.28
461.00	5127.33
462.00	5167.12
463.00	5151.52
464.00	5176.48
465.00	5195.21
466.00	5266.99
467.00	5246.70
468.00	5275.57
469.00	5269.33
470.00	5282.59
471.00	5342.66
472.00	5415.22
473.00	5479.97
474.00	5476.85
475.00	5444.09
476.00	5449.55
477.00	5519.76
478.00	5561.11
479.00	5563.45
480.00	5518.20
481.00	5555.65
482.00	5614.17
483.00	5632.89
484.00	5645.37
485.00	5618.85
486.00	5665.66
487.00	5654.73
488.00	5714.03
489.00	5763.18
490.00	5779.56
491.00	5781.12
492.00	5824.03
493.00	5877.87
494.00	5959.00
495.00	5899.71
496.00	5924.68
497.00	5947.30
498.00	6056.53
499.00	6086.17
500.00	6059.65
501.00	6033.12
502.00	6040.14
503.00	6051.06
504.00	6093.19
505.00	6096.32
506.00	6181.35
507.00	6200.08
508.00	6216.46
509.00	6189.94
510.00	6232.85
511.00	6321.01
512.00	6357.68
513.00	6427.89
514.00	6474.70
515.00	6575.34
516.00	6582.37
517.00	6612.01
518.00	6594.85
519.00	6535.56
520.00	6537.12
521.00	6562.08
522.00	6626.06
523.00	6647.90
524.00	6635.42
525.00	6691.59
526.00	6647.90
527.00	6672.09
528.00	6668.19
529.00	6714.22
530.00	6720.46
531.00	6694.71
532.00	6718.12
533.00	6746.98
534.00	6732.94
535.00	6739.96
536.00	6717.34
537.00	6785.21
538.00	6851.53
539.00	6910.82
540.00	6956.85
541.00	6919.40
542.00	7018.49
543.00	7031.75
544.00	7118.35
545.00	7101.97
546.00	7157.36
547.00	7233.82
548.00	7264.24
549.00	7302.47
550.00	7272.82
551.00	7324.32
552.00	7339.14
553.00	7394.53
554.00	7382.05
555.00	7446.80
556.00	7459.29
557.00	7504.54
558.00	7524.82
559.00	7581.78
560.00	7664.47
561.00	7666.81
562.00	7651.99
563.00	7690.22
564.00	7701.92
565.00	7822.07
566.00	7894.63
567.00	7976.55
568.00	8056.12
569.00	8070.17
570.00	8151.31
571.00	8211.38
572.00	8205.92
573.00	8177.05
574.00	8120.10
575.00	8236.35
576.00	8348.69
577.00	8471.96
578.00	8502.39
579.00	8560.90
580.00	8601.47
581.00	8651.40
582.00	8663.10
583.00	8596.79
584.00	8657.64
585.00	8777.01
586.00	8943.19
587.00	8857.37
588.00	8823.04
589.00	8806.66
590.00	9013.40
591.00	9106.24
592.00	9236.53
593.00	9343.42
594.00	9415.20
595.00	9473.71
596.00	9561.87
597.00	9708.54
598.00	9859.90
599.00	9882.52
600.00	9881.74
601.00	9833.37
602.00	9876.28
603.00	9964.44
604.00	10136.08
605.00	10310.84
606.00	10402.90
607.00	10533.97
608.00	10505.88
609.00	10577.66
610.00	10445.03
611.00	10467.66
612.00	10484.82
613.00	10679.86
614.00	10768.02
615.00	10917.04
616.00	10966.19
617.00	11126.91
618.00	11257.20
619.00	11414.79
620.00	11421.03
621.00	11509.19
622.00	11623.88
623.00	11861.05
624.00	11939.85
625.00	11908.65
626.00	11918.79
627.00	11962.48
628.00	12111.49
629.00	12291.71
630.00	12531.23
631.00	12556.19
632.00	12523.43
633.00	12558.53
634.00	12797.27
635.00	12961.11
636.00	13067.21
637.00	13234.17
638.00	13344.95
639.00	13379.28
640.00	13338.71
641.00	13335.59
642.00	13431.55
643.00	13450.28
644.00	13686.67
645.00	13632.84
646.00	13796.68
647.00	13779.51
648.00	13982.36
649.00	14223.44
650.00	14269.47
651.00	14479.33
652.00	14385.71
653.00	14574.52
654.00	14597.14
655.00	14679.84
656.00	14788.28
657.00	14872.54
658.00	14960.70
659.00	15147.95
660.00	15270.44
661.00	15496.69
662.00	15476.40
663.00	15428.03
664.00	15490.45
665.00	15616.83
666.00	15881.32
667.00	15912.52
668.00	15956.21
669.00	16042.81
670.00	16104.45
671.00	16178.56
672.00	16294.03
673.00	16434.46
674.00	16583.48
675.00	16722.35
676.00	16817.53
677.00	16896.33
678.00	16912.71
679.00	17035.98
680.00	17300.46
681.00	17419.05
682.00	17689.77
683.00	17639.06
684.00	17830.98
685.00	17855.17
686.00	18026.81
687.00	18061.13
688.00	18117.31
689.00	18301.43
690.00	18447.32
691.00	18593.22
692.00	18751.59
693.00	18880.32
694.00	18902.17
695.00	18824.93
696.00	18832.73
697.00	18963.02
698.00	19130.76
699.00	19218.14
700.00	19299.28
701.00	19368.71
702.00	19367.15
703.00	19456.87
704.00	19545.03
705.00	19727.60
706.00	19871.15
707.00	20003.78
708.00	20167.62
709.00	20351.74
710.00	20541.32
711.00	20698.92
712.00	20808.92
713.00	20829.21
714.00	20725.44
715.00	20724.66
716.00	20726.22
717.00	20986.02
718.00	21182.63
719.00	21333.20
720.00	21314.48
721.00	21180.29
722.00	21266.11
723.00	21399.52
724.00	21603.14
725.00	21589.10
726.00	21628.89
727.00	21871.53
728.00	22089.98
729.00	22269.42
730.00	22257.71
731.00	22243.67
732.00	22192.96
733.00	22012.74
734.00	22127.42
735.00	22296.72
736.00	22515.17
737.00	22564.32
738.00	22541.70
739.00	22575.25
740.00	22568.23
741.00	22806.96
742.00	22994.20
743.00	23184.57
744.00	23198.61
745.00	23230.60
746.00	23354.65
747.00	23612.88
748.00	23633.17
749.00	23691.68
750.00	23539.55
751.00	23699.48
752.00	23777.50
753.00	23843.82
754.00	23848.50
755.00	23824.31
756.00	24029.50
757.00	24117.66
758.00	24264.33
759.00	24328.31
760.00	24425.83
761.00	24567.82
762.00	24555.34
763.00	24655.98
764.00	24712.16
765.00	24939.19
766.00	25116.29
767.00	25252.04
768.00	25275.45
769.00	25327.72
770.00	25448.64
771.00	25550.85
772.00	25632.77
773.00	25688.94
774.00	25852.00
775.00	26008.81
776.00	26043.92
777.00	26035.34
778.00	25965.12
779.00	26023.64
780.00	25986.97
781.00	26179.67
782.00	26327.13
783.00	26714.09
784.00	26810.84
785.00	26886.51
786.00	26790.55
787.00	26834.24
788.00	26896.66
789.00	27108.86
790.00	27207.17
791.00	27294.55
792.00	27278.16
793.00	27389.73
794.00	27495.05
795.00	27473.21
796.00	27516.90
797.00	27588.67
798.00	27768.12
799.00	27860.18
800.00	27926.49
801.00	28044.30
802.00	28266.65
803.00	28298.64
804.00	28375.87
805.00	28410.98
806.00	28612.27
807.00	28532.69
808.00	28500.70
809.00	28411.76
810.00	28599.01
811.00	28761.28
812.00	29000.80
813.00	29142.79
814.00	29235.63
815.00	29421.31
816.00	29651.47
817.00	29790.34
818.00	29641.32
819.00	29546.92
820.00	29637.42
821.00	29945.59
822.00	30146.88
823.00	30233.48
824.00	30070.42
825.00	29856.65
826.00	29784.10
827.00	30036.09
828.00	30330.22
829.00	30374.69
830.00	30490.16
831.00	30540.09
832.00	30728.89
833.00	30617.33
834.00	30672.72
835.00	30778.04
836.00	31089.34
837.00	31275.80
838.00	31223.53
839.00	31116.64
840.00	31024.58
841.00	31114.30
842.00	31257.07
843.00	31522.34
844.00	31744.69
845.00	31866.39
846.00	31886.68
847.00	31862.49
848.00	31928.81
849.00	31981.08
850.00	32045.83
851.00	32078.60
852.00	31930.37
853.00	31931.93
854.00	32003.71
855.00	32303.29
856.00	32407.84
857.00	32545.93
858.00	32581.82
859.00	32651.25
860.00	32704.31
861.00	32659.06
862.00	32800.27
863.00	32788.56
864.00	33044.46
865.00	33110.00
866.00	33414.27
867.00	33539.10
868.00	33731.02
869.00	33759.89
870.00	33859.75
871.00	33961.95
872.00	33968.98
873.00	34036.07
874.00	34062.60
875.00	34071.96
876.00	34104.73
877.00	34079.76
878.00	34304.45
879.00	34328.64
880.00	34345.02
881.00	34171.04
882.00	33882.38
883.00	33962.73
884.00	33929.19
885.00	34105.51
886.00	34125.01
887.00	34288.85
888.00	34583.76
889.00	34604.04
890.00	34795.18
891.00	34885.68
892.00	35187.61
893.00	35073.71
894.00	34998.03
895.00	34924.69
896.00	35089.31
897.00	35148.60
898.00	35212.58
899.00	35441.95
900.00	35768.85
901.00	35994.32
902.00	36020.84
903.00	35988.08
904.00	36022.40
905.00	36045.81
906.00	36144.11
907.00	36052.05
908.00	36059.07
909.00	36197.16
910.00	36209.65
911.00	36147.23
912.00	35906.16
913.00	35933.46
914.00	35952.97
915.00	36099.64
916.00	36286.89
917.00	36504.56
918.00	36632.50
919.00	36487.39
920.00	36369.58
921.00	36397.67
922.00	36690.24
923.00	36839.25
924.00	36701.94
925.00	36536.54
926.00	36608.32
927.00	36825.21
928.00	37028.06
929.00	37312.04
930.00	37438.43
931.00	37578.86
932.00	37676.38
933.00	37671.70
934.00	37661.56
935.00	37452.47
936.00	37423.61
937.00	37432.97
938.00	37368.21
939.00	37471.20
940.00	37693.55
941.00	37757.52
942.00	37808.23
943.00	37705.25
944.00	37833.98
945.00	37940.86
946.00	38032.14
947.00	38059.45
948.00	38141.37
949.00	38103.92
950.00	38211.59
951.00	38082.08
952.00	37975.19
953.00	37940.08
954.00	37987.67
955.00	38179.60
956.00	38351.24
957.00	38634.44
958.00	38950.42
959.00	39186.81
960.00	39330.36
961.00	39279.65
962.00	39264.83
963.00	39196.17
964.00	39477.04
965.00	39613.57
966.00	39910.03
967.00	40022.38
968.00	39979.47
969.00	39886.63
970.00	39891.31
971.00	40179.20
972.00	40289.98
973.00	40257.99
974.00	40059.05
975.00	40188.56
976.00	40032.52
977.00	40062.17
978.00	39783.65
979.00	39776.62
980.00	39612.79
981.00	39977.13
982.00	40002.10
983.00	40324.31
984.00	40356.30
985.00	40673.05
986.00	40613.76
987.00	40452.26
988.00	40605.17
989.00	40588.79
990.00	40797.10
991.00	40571.63
992.00	40769.01
993.00	40702.70
994.00	40942.99
995.00	41094.35
996.00	41255.84
997.00	41526.56
998.00	41756.72
999.00	41940.06
1000.00	41907.29
1001.00	41926.02
1002.00	41971.27
1003.00	41873.74
1004.00	41981.41
1005.00	42036.80
1006.00	42243.55
1007.00	42199.08
1008.00	42302.84
1009.00	42001.69
1010.00	42070.35
1011.00	41911.97
1012.00	42205.32
1013.00	42124.18
1014.00	42242.77
1015.00	42192.84
1016.00	42177.23
1017.00	42265.39
1018.00	42462.00
1019.00	42779.53
1020.00	42786.55
1021.00	42916.84
1022.00	42691.37
1023.00	42625.84
1024.00	42605.55
1025.00	42847.41
1026.00	43178.20
1027.00	43325.66
1028.00	43559.71
1029.00	43583.12
1030.00	43666.59
1031.00	43700.92
1032.00	43759.44
1033.00	43766.46
1034.00	43691.56
1035.00	43796.10
1036.00	43831.21
1037.00	43842.13
1038.00	43737.59
1039.00	43747.73
1040.00	43895.97
1041.00	44119.10
1042.00	44225.98
1043.00	44385.92
1044.00	44450.67
1045.00	44520.11
1046.00	44509.97
1047.00	44291.52
1048.00	44203.36
1049.00	44111.30
1050.00	44556.00
1051.00	44964.81
1052.00	45200.43
1053.00	45086.52
1054.00	44925.02
1055.00	44690.19
1056.00	44646.50
1057.00	44767.43
1058.00	45087.30
1059.00	45084.18
1060.00	45056.87
1061.00	44851.69
1062.00	45037.37
1063.00	45025.67
1064.00	45088.86
1065.00	44996.02
1066.00	45112.27
1067.00	45498.45
1068.00	45517.18
1069.00	45557.75
1070.00	45273.76
1071.00	45446.96
1072.00	45457.10
1073.00	45609.24
1074.00	45764.49
1075.00	45852.66
1076.00	46000.11
1077.00	46043.80
1078.00	46002.45
1079.00	45988.41
1080.00	45827.69
1081.00	45932.23
1082.00	45929.11
1083.00	45940.03
1084.00	45961.10
1085.00	45824.57
1086.00	46064.08
1087.00	46160.05
1088.00	46344.95
1089.00	46364.45
1090.00	46538.43
1091.00	46884.83
1092.00	46968.31
1093.00	46841.14
1094.00	46885.61
1095.00	47031.50
1096.00	47089.24
1097.00	47100.94
1098.00	47025.26
1099.00	47097.82
1100.00	47004.98
1101.00	46905.90
1102.00	47001.08
1103.00	47059.59
1104.00	47237.47
1105.00	47203.14
1106.00	47300.67
1107.00	47276.48
1108.00	47421.59
1109.00	47267.90
1110.00	47596.35
1111.00	47416.91
1112.00	47558.91
1113.00	47111.86
1114.00	47229.67
1115.00	47121.23
1116.00	47265.56
1117.00	47182.08
1118.00	47207.05
1119.00	47395.85
1120.00	47544.08
1121.00	47547.98
1122.00	47455.14
1123.00	47370.88
1124.00	47350.60
1125.00	47121.23
1126.00	46988.60
1127.00	47104.84
1128.00	47285.84
1129.00	47516.78
1130.00	47601.04
1131.00	47698.56
1132.00	47759.41
1133.00	47679.83
1134.00	47650.19
1135.00	47566.71
1136.00	47728.20
1137.00	47914.67
1138.00	48108.93
1139.00	48087.87
1140.00	48039.50
1141.00	48108.15
1142.00	48242.34
1143.00	48358.59
1144.00	48268.09
1145.00	47998.93
1146.00	47963.82
1147.00	47861.61
1148.00	48062.90
1149.00	48037.94
1150.00	48080.06
1151.00	48229.08
1152.00	48367.95
1153.00	48568.46
1154.00	48431.93
1155.00	48197.09
1156.00	48032.47
1157.00	47962.26
1158.00	48078.50
1159.00	48355.47
1160.00	48559.09
1161.00	48832.94
1162.00	49038.90
1163.00	49078.69
1164.00	48953.08
1165.00	48846.98
1166.00	48831.38
1167.00	48906.27
1168.00	48832.16
1169.00	48684.70
1170.00	48499.02
1171.00	48319.58
1172.00	48329.72
1173.00	48424.90
1174.00	48453.77
1175.00	48772.08
1176.00	48612.93
1177.00	48489.66
1178.00	48159.64
1179.00	48204.89
1180.00	48410.86
1181.00	48724.49
1182.00	49074.01
1183.00	49337.71
1184.00	49358.78
1185.00	49316.65
1186.00	49277.64
1187.00	49228.49
1188.00	49186.36
1189.00	49006.92
1190.00	49046.71
1191.00	49058.41
1192.00	48907.83
1193.00	48698.75
1194.00	48626.97
1195.00	48978.83
1196.00	49190.26
1197.00	49200.40
1198.00	49035.00
1199.00	48928.12
1200.00	48811.87
1201.00	48811.09
1202.00	48712.79
1203.00	48918.76
1204.00	49087.28
1205.00	49403.25
1206.00	49499.21
1207.00	49507.01
1208.00	49365.02
1209.00	49093.52
1210.00	48860.24
1211.00	48800.17
1212.00	48898.47
1213.00	49129.40
1214.00	49120.82
1215.00	49061.53
1216.00	48856.34
1217.00	49048.27
1218.00	49065.43
1219.00	49199.62
1220.00	49208.98
1221.00	49210.54
1222.00	49311.19
1223.00	49258.13
1224.00	49301.04
1225.00	49066.21
1226.00	49064.65
1227.00	49181.68
1228.00	49448.50
1229.00	49446.16
1230.00	49457.08
1231.00	49395.45
1232.00	49474.24
1233.00	49563.18
1234.00	49564.74
1235.00	49635.74
1236.00	49764.47
1237.00	49783.97
1238.00	49876.82
1239.00	49915.83
1240.00	50255.20
1241.00	50251.30
1242.00	50118.67
1243.00	49968.88
1244.00	49973.56
1245.00	50090.58
1246.00	50103.85
1247.00	50263.00
1248.00	50457.27
1249.00	50587.56
1250.00	50341.02
1251.00	50153.78
1252.00	50022.71
1253.00	50032.07
1254.00	50004.77
1255.00	49898.66
1256.00	49965.76
1257.00	50011.01
1258.00	50135.06
1259.00	50120.23
1260.00	50085.12
1261.00	50253.64
1262.00	50546.21
1263.00	50882.47
1264.00	50986.23
1265.00	51041.62
1266.00	50929.28
1267.00	50996.37
1268.00	51068.93
1269.00	51209.36
1270.00	50983.11
1271.00	50881.69
1272.00	50753.74
1273.00	50756.08
1274.00	50632.03
1275.00	50550.11
1276.00	50571.18
1277.00	50570.39
1278.00	50617.99
1279.00	50691.32
1280.00	50735.79
1281.00	50849.70
1282.00	50972.19
1283.00	51192.20
1284.00	51242.91
1285.00	51363.06
1286.00	51232.77
1287.00	51205.46
1288.00	50995.59
1289.00	51182.84
1290.00	51314.69
1291.00	51565.90
1292.00	51590.87
1293.00	51610.37
1294.00	51642.36
1295.00	51599.45
1296.00	51515.97
1297.00	51335.75
1298.00	51233.55
1299.00	51210.14
1300.00	50948.00
1301.00	50865.30
1302.00	50862.96
1303.00	51125.10
1304.00	51292.84
1305.00	51310.78
1306.00	51262.41
1307.00	51203.90
1308.00	51164.89
1309.00	51108.72
1310.00	51217.94
1311.00	51244.47
1312.00	51592.43
1313.00	51582.29
1314.00	51806.20
1315.00	51849.89
1316.00	51937.27
1317.00	51866.27
1318.00	51814.00
1319.00	51682.93
1320.00	51771.87
1321.00	51792.93
1322.00	51990.32
1323.00	51938.83
1324.00	51965.35
1325.00	51954.43
1326.00	52142.45
1327.00	52210.33
1328.00	52420.98
1329.00	52471.69
1330.00	52606.66
1331.00	52574.67
1332.00	52410.84
1333.00	52179.12
1334.00	52005.14
1335.00	51959.11
1336.00	51888.90
1337.00	51742.22
1338.00	51725.84
1339.00	51706.33
1340.00	51847.55
1341.00	51896.70
1342.00	51948.19
1343.00	52019.97
1344.00	52116.71
1345.00	52218.13
1346.00	52092.52
1347.00	52071.46
1348.00	52064.44
1349.00	52147.14
1350.00	52112.03
1351.00	52106.57
1352.00	52019.19
1353.00	52068.34
1354.00	52122.17
1355.00	52239.98
1356.00	52257.92
1357.00	52360.12
1358.00	52425.66
1359.00	52409.28
1360.00	52355.44
1361.00	52360.12
1362.00	52339.06
1363.00	52394.45
1364.00	52288.35
1365.00	52442.82
1366.00	52422.54
1367.00	52493.53
1368.00	52549.71
1369.00	52548.93
1370.00	52633.19
1371.00	52429.56
1372.00	52344.52
1373.00	52406.16
1374.00	52520.06
1375.00	52626.95
1376.00	52562.97
1377.00	52375.73
1378.00	52405.37
1379.00	52293.81
1380.00	52493.53
1381.00	52495.10
1382.00	52463.11
1383.00	52323.46
1384.00	52093.30
1385.00	52041.03
1386.00	51914.64
1387.00	51743.00
1388.00	51833.50
1389.00	51803.86
1390.00	52072.24
1391.00	52039.47
1392.00	52222.81
1393.00	52223.59
1394.00	52360.90
1395.00	52485.73
1396.00	52566.87
1397.00	52429.56
1398.00	52320.34
1399.00	52252.46
1400.00	52391.33
1401.00	52309.41
1402.00	52337.50
1403.00	52197.07
1404.00	52104.23
1405.00	52033.23
1406.00	52156.50
1407.00	52296.93
1408.00	52349.20
1409.00	52274.30
1410.00	52340.62
1411.00	52346.86
1412.00	52360.90
1413.00	52431.90
1414.00	52481.05
1415.00	52752.55
1416.00	52736.95
1417.00	52761.92
1418.00	52577.01
1419.00	52544.25
1420.00	52557.51
1421.00	52516.16
1422.00	52616.02
1423.00	52630.07
1424.00	52654.25
1425.00	52569.99
1426.00	52558.29
1427.00	52572.33
1428.00	52554.39
1429.00	52431.90
1430.00	52317.99
1431.00	52221.25
1432.00	52315.65
1433.00	52234.52
1434.00	52134.65
1435.00	51836.62
1436.00	51859.25
1437.00	51753.15
1438.00	51886.56
1439.00	51819.46
1440.00	51952.87
1441.00	51934.15
1442.00	51951.31
1443.00	51910.74
1444.00	51874.07
1445.00	51957.55
1446.00	52054.29
1447.00	52189.27
1448.00	52295.37
1449.00	52351.54
1450.00	52324.24
1451.00	52293.81
1452.00	52402.25
1453.00	52493.53
1454.00	52378.07
1455.00	52200.19
1456.00	52089.40
1457.00	52126.07
1458.00	52165.86
1459.00	51984.08
1460.00	51959.11
1461.00	51879.53
1462.00	51877.97
1463.00	51817.90
1464.00	51889.68
1465.00	51873.29
1466.00	51705.55
1467.00	51714.14
1468.00	51770.31
1469.00	51939.61
1470.00	51781.23
1471.00	51934.15
1472.00	51997.34
1473.00	51960.67
1474.00	51892.02
1475.00	51845.99
1476.00	51958.33
1477.00	51963.79
1478.00	51928.69
1479.00	51901.38
1480.00	51814.00
1481.00	51760.95
1482.00	51700.09
1483.00	51680.59
1484.00	51724.28
1485.00	51666.55
1486.00	51571.36
1487.00	51363.06
1488.00	51353.69
1489.00	51398.16
1490.00	51409.09
1491.00	51371.64
1492.00	51313.91
1493.00	51459.02
1494.00	51549.52
1495.00	51576.83
1496.00	51575.26
1497.00	51558.10
1498.00	51655.62
1499.00	51648.60
1500.00	51746.12
1501.00	51689.95
1502.00	51792.93
1503.00	51633.00
1504.00	51545.62
1505.00	51576.83
1506.00	51515.19
1507.00	51582.29
1508.00	51317.03
1509.00	51466.04
1510.00	51548.74
1511.00	51721.16
1512.00	51755.49
1513.00	51703.21
1514.00	51593.99
1515.00	51407.53
1516.00	51192.98
1517.00	51118.86
1518.00	51207.02
1519.00	51319.37
1520.00	51369.30
1521.00	51331.85
1522.00	51320.93
1523.00	51343.55
1524.00	51286.60
1525.00	51285.82
1526.00	51034.60
1527.00	51055.67
1528.00	51003.39
1529.00	51132.90
1530.00	51034.60
1531.00	51108.72
1532.00	51252.27
1533.00	51370.86
1534.00	51322.49
1535.00	51268.65
1536.00	51296.74
1537.00	51412.99
1538.00	51408.31
1539.00	51489.45
1540.00	51401.28
1541.00	51356.03
1542.00	51282.70
1543.00	51464.48
1544.00	51583.07
1545.00	51534.70
1546.00	51291.28
1547.00	51023.68
1548.00	50991.69
1549.00	50991.69
1550.00	51076.73
1551.00	51035.38
1552.00	50972.19
1553.00	51042.40
1554.00	51088.43
1555.00	51125.10
1556.00	51146.95
1557.00	51127.44
1558.00	51173.47
1559.00	51088.43
1560.00	50909.77
1561.00	50783.38
1562.00	50650.75
1563.00	50669.48
1564.00	50628.91
1565.00	50561.03
1566.00	50405.78
1567.00	50280.95
1568.00	50266.91
1569.00	50151.44
1570.00	50100.73
1571.00	50112.43
1572.00	50273.93
1573.00	50396.42
1574.00	50417.48
1575.00	50383.93
1576.00	50259.10
1577.00	50216.97
1578.00	50335.56
1579.00	50492.38
1580.00	50459.61
1581.00	50313.72
1582.00	50253.64
1583.00	50380.03
1584.00	50632.03
1585.00	50717.85
1586.00	50511.10
1587.00	50219.31
1588.00	50155.34
1589.00	50295.77
1590.00	50387.83
1591.00	50327.76
1592.00	50273.15
1593.00	50142.86
1594.00	50139.74
1595.00	49996.18
1596.00	50208.39
1597.00	50149.88
1598.00	50135.06
1599.00	50000.08
1600.00	50096.05
1601.00	50143.64
1602.00	50136.62
1603.00	49875.26
1604.00	49986.82
1605.00	50046.90
1606.00	50079.66
1607.00	49808.16
1608.00	49616.24
1609.00	49585.03
1610.00	49693.47
1611.00	49812.84
1612.00	49949.37
1613.00	50050.02
1614.00	49851.07
1615.00	49754.33
1616.00	49786.32
1617.00	50032.85
1618.00	50242.72
1619.00	50256.76
1620.00	50291.09
1621.00	50184.99
1622.00	50252.08
1623.00	50046.90
1624.00	50141.30
1625.00	49909.58
1626.00	49780.85
1627.00	49614.68
1628.00	49599.07
1629.00	49763.69
1630.00	49686.45
1631.00	49753.55
1632.00	49824.54
1633.00	49964.20
1634.00	49983.70
1635.00	50007.89
1636.00	49856.53
1637.00	49829.23
1638.00	49617.80
1639.00	49661.49
1640.00	49544.46
1641.00	49530.42
1642.00	49473.46
1643.00	49450.84
1644.00	49356.44
1645.00	49395.45
1646.00	49389.98
1647.00	49450.84
1648.00	49573.33
1649.00	49598.29
1650.00	49690.35
1651.00	49308.07
1652.00	49213.66
1653.00	49059.97
1654.00	49139.55
1655.00	49106.78
1656.00	49047.49
1657.00	49084.93
1658.00	48977.27
1659.00	49025.64
1660.00	49010.82
1661.00	49002.24
1662.00	48924.22
1663.00	49002.24
1664.00	49192.60
1665.00	49418.85
1666.00	49456.30
1667.00	49413.39
1668.00	49294.80
1669.00	49099.76
1670.00	48942.16
1671.00	48793.15
1672.00	48881.31
1673.00	49028.76
1674.00	49236.29
1675.00	49224.59
1676.00	49248.77
1677.00	49120.04
1678.00	49041.24
1679.00	48889.11
1680.00	48666.76
1681.00	48530.23
1682.00	48477.96
1683.00	48381.99
1684.00	48321.92
1685.00	48315.68
1686.00	48468.59
1687.00	48659.74
1688.00	48607.47
1689.00	48577.82
1690.00	48502.92
1691.00	48499.80
1692.00	48419.44
1693.00	48127.66
1694.00	47829.63
1695.00	47714.16
1696.00	47757.85
1697.00	47926.37
1698.00	48081.63
1699.00	48237.66
1700.00	48508.38
1701.00	48533.35
1702.00	48536.47
1703.00	48443.63
1704.00	48419.44
1705.00	48371.85
1706.00	48378.87
1707.00	48258.73
1708.00	48306.32
1709.00	48141.70
1710.00	48126.88
1711.00	47936.51
1712.00	47659.55
1713.00	47484.01
1714.00	47465.28
1715.00	47590.11
1716.00	47737.57
1717.00	47639.26
1718.00	47802.32
1719.00	47787.50
1720.00	47784.38
1721.00	47397.41
1722.00	47283.50
1723.00	47264.78
1724.00	47375.56
1725.00	47395.07
1726.00	47404.43
1727.00	47385.71
1728.00	47136.83
1729.00	46888.73
1730.00	46700.71
1731.00	46639.86
1732.00	46608.65
1733.00	46396.44
1734.00	46327.78
1735.00	46174.87
1736.00	46241.18
1737.00	46245.86
1738.00	46319.98
1739.00	46275.51
1740.00	46067.20
1741.00	45705.98
1742.00	45561.65
1743.00	45431.36
1744.00	45494.55
1745.00	45361.92
1746.00	45459.44
1747.00	45343.20
1748.00	45272.98
1749.00	45070.14
1750.00	45047.51
1751.00	44962.47
1752.00	44795.51
1753.00	44513.09
1754.00	44375.78
1755.00	44466.28
1756.00	44595.01
1757.00	44617.63
1758.00	44507.63
1759.00	44360.17
1760.00	44257.19
1761.00	44133.92
1762.00	44094.91
1763.00	43878.80
1764.00	43767.24
1765.00	43680.64
1766.00	43710.28
1767.00	43600.28
1768.00	43567.51
1769.00	43630.71
1770.00	43764.12
1771.00	43856.96
1772.00	43733.69
1773.00	43654.89
1774.00	43406.02
1775.00	43364.67
1776.00	43179.76
1777.00	43060.40
1778.00	42993.30
1779.00	42955.85
1780.00	42969.12
1781.00	42742.86
1782.00	42647.68
1783.00	42568.10
1784.00	42620.38
1785.00	42486.18
1786.00	42275.54
1787.00	42098.44
1788.00	41998.57
1789.00	41977.51
1790.00	41755.16
1791.00	41467.27
1792.00	41184.85
1793.00	41060.80
1794.00	41002.28
1795.00	40916.47
1796.00	40630.92
1797.00	40410.13
1798.00	40104.30
1799.00	40035.64
1800.00	39908.47
1801.00	39872.59
1802.00	39667.40
1803.00	39538.67
1804.00	39253.90
1805.00	39133.76
1806.00	38819.35
1807.00	38849.77
1808.00	38917.65
1809.00	38974.60
1810.00	38863.82
1811.00	38700.76
1812.00	38766.29
1813.00	38742.89
1814.00	38566.57
1815.00	38268.54
1816.00	38108.60
1817.00	38055.55
1818.00	38067.25
1819.00	37979.09
1820.00	37789.51
1821.00	37567.94
1822.00	37313.60
1823.00	37095.93
1824.00	36851.73
1825.00	36589.59
1826.00	36445.26
1827.00	36304.83
1828.00	36357.10
1829.00	36321.99
1830.00	35932.68
1831.00	35827.36
1832.00	35697.85
1833.00	35942.05
1834.00	35651.82
1835.00	35317.90
1836.00	34748.37
1837.00	34519.78
1838.00	34270.12
1839.00	34267.78
1840.00	34032.17
1841.00	33856.63
1842.00	33637.40
1843.00	33403.35
1844.00	33298.80
1845.00	33125.60
1846.00	32946.94
1847.00	32652.03
1848.00	32275.21
1849.00	31974.84
1850.00	31782.13
1851.00	31789.16
1852.00	31648.72
1853.00	31714.26
1854.00	31562.90
1855.00	31550.42
1856.00	31248.49
1857.00	31246.93
1858.00	31037.06
1859.00	30880.25
1860.00	30540.87
1861.00	30543.21
1862.00	30555.69
1863.00	30454.27
1864.00	30257.67
1865.00	30036.09
1866.00	29975.24
1867.00	29758.35
1868.00	29505.57
1869.00	29103.78
1870.00	28850.22
1871.00	28578.72
1872.00	28462.47
1873.00	28192.53
1874.00	28045.86
1875.00	27904.65
1876.00	27903.09
1877.00	27729.89
1878.00	27546.54
1879.00	27133.05
1880.00	26958.29
1881.00	26739.06
1882.00	26774.95
1883.00	26600.97
1884.00	26547.14
1885.00	26238.97
1886.00	26072.79
1887.00	25827.03
1888.00	25717.03
1889.00	25646.81
1890.00	25498.58
1891.00	25381.55
1892.00	25138.91
1893.00	25047.63
1894.00	24878.33
1895.00	24755.07
1896.00	24538.96
1897.00	24439.09
1898.00	24234.69
1899.00	24148.09
1900.00	24064.61
1901.00	23998.29
1902.00	23836.80
1903.00	23694.02
1904.00	23588.70
1905.00	23529.41
1906.00	23323.44
1907.00	23087.04
1908.00	22863.91
1909.00	22733.62
1910.00	22539.36
1911.00	22313.11
1912.00	21986.21
1913.00	21890.25
1914.00	21766.20
1915.00	21786.49
1916.00	21737.34
1917.00	21556.33
1918.00	21334.76
1919.00	21046.88
1920.00	20909.57
1921.00	20793.32
1922.00	20677.85
1923.00	20471.11
1924.00	20294.79
1925.00	20111.44
1926.00	19958.53
1927.00	19742.42
1928.00	19605.11
1929.00	19443.61
1930.00	19428.01
1931.00	19402.26
1932.00	19415.52
1933.00	19332.82
1934.00	19118.28
1935.00	19030.90
1936.00	18786.70
1937.00	18659.53
1938.00	18475.41
1939.00	18367.74
1940.00	18234.33
1941.00	18058.79
1942.00	17921.48
1943.00	17837.22
1944.00	17749.84
1945.00	17640.62
1946.00	17506.43
1947.00	17365.99
1948.00	17224.78
1949.00	17149.89
1950.00	16998.53
1951.00	16834.69
1952.00	16655.25
1953.00	16675.54
1954.00	16694.26
1955.00	16655.25
1956.00	16436.80
1957.00	16386.87
1958.00	16210.55
1959.00	16087.28
1960.00	15849.33
1961.00	15684.71
1962.00	15577.83
1963.00	15509.95
1964.00	15507.61
1965.00	15374.20
1966.00	15286.04
1967.00	15120.64
1968.00	15021.56
1969.00	15012.20
1970.00	14958.36
1971.00	14817.15
1972.00	14578.42
1973.00	14576.86
1974.00	14539.41
1975.00	14431.74
1976.00	14149.32
1977.00	14050.24
1978.00	13937.11
1979.00	13777.95
1980.00	13713.20
1981.00	13607.09
1982.00	13655.47
1983.00	13560.28
1984.00	13555.60
1985.00	13456.52
1986.00	13422.97
1987.00	13339.49
1988.00	13327.79
1989.00	13137.43
1990.00	13036.78
1991.00	12848.76
1992.00	12798.05
1993.00	12671.66
1994.00	12548.39
1995.00	12440.73
1996.00	12356.47
1997.00	12259.73
1998.00	12208.23
1999.00	12193.41
2000.00	12162.20
2001.00	12109.15
2002.00	12029.57
2003.00	11970.28
2004.00	11845.45
2005.00	11725.30
2006.00	11598.13
2007.00	11599.70
2008.00	11567.71
2009.00	11513.10
2010.00	11414.01
2011.00	11364.08
2012.00	11371.10
2013.00	11314.93
2014.00	11208.83
2015.00	11152.65
2016.00	11117.54
2017.00	11037.19
2018.00	10983.35
2019.00	10929.52
2020.00	10872.57
2021.00	10753.20
2022.00	10670.50
2023.00	10626.03
2024.00	10634.61
2025.00	10562.84
2026.00	10419.28
2027.00	10377.94
2028.00	10373.25
2029.00	10408.36
2030.00	10316.30
2031.00	10167.29
2032.00	10143.10
2033.00	10054.94
2034.00	10019.05
2035.00	9846.63
2036.00	9777.20
2037.00	9733.51
2038.00	9703.86
2039.00	9647.69
2040.00	9579.03
2041.00	9616.48
2042.00	9586.83
2043.00	9564.21
2044.00	9441.72
2045.00	9445.62
2046.00	9423.00
2047.00	9420.66
>>>>>End Processed Spectral Data<<<<<
