SpectraSuite Data File
++++++++++++++++++++++++++++++++++++
Date: Thu Nov 16 14:09:52 EST 2017
User: cheriyan
Dark Spectrum Present: No
Reference Spectrum Present: No
Number of Sampled Component Spectra: 1
Spectrometers: USB2+H05261
Integration Time (usec): 100000 (USB2+H05261)
Spectra Averaged: 1 (USB2+H05261)
Boxcar Smoothing: 1 (USB2+H05261)
Correct for Electrical Dark: No (USB2+H05261)
Strobe/Lamp Enabled: No (USB2+H05261)
Correct for Detector Non-linearity: No (USB2+H05261)
Correct for Stray Light: No (USB2+H05261)
Number of Pixels in Processed Spectrum: 2048
>>>>>Begin Processed Spectral Data<<<<<
0.00	367.46
1.00	367.46
2.00	327.68
3.00	276.96
4.00	243.42
5.00	248.88
6.00	265.26
7.00	259.02
8.00	226.25
9.00	228.59
10.00	233.27
11.00	268.38
12.00	266.82
13.00	274.62
14.00	257.46
15.00	252.78
16.00	231.71
17.00	241.08
18.00	249.66
19.00	256.68
20.00	268.38
21.00	261.36
22.00	297.25
23.00	362.78
24.00	479.03
25.00	545.34
26.00	574.21
27.00	596.06
28.00	608.54
29.00	621.80
30.00	647.55
31.00	670.95
32.00	703.72
33.00	687.34
34.00	686.56
35.00	683.44
36.00	708.40
37.00	738.05
38.00	735.71
39.00	725.57
40.00	734.93
41.00	772.38
42.00	799.68
43.00	784.86
44.00	798.12
45.00	784.86
46.00	800.46
47.00	764.57
48.00	763.01
49.00	769.26
50.00	772.38
51.00	755.99
52.00	748.19
53.00	759.11
54.00	786.42
55.00	788.76
56.00	783.30
57.00	779.40
58.00	783.30
59.00	780.96
60.00	767.70
61.00	778.62
62.00	795.78
63.00	814.51
64.00	817.63
65.00	827.77
66.00	816.85
67.00	806.70
68.00	791.10
69.00	796.56
70.00	823.87
71.00	836.35
72.00	855.08
73.00	837.91
74.00	827.77
75.00	810.61
76.00	787.20
77.00	797.34
78.00	791.10
79.00	812.95
80.00	805.92
81.00	830.11
82.00	847.27
83.00	879.26
84.00	866.00
85.00	878.48
86.00	860.54
87.00	887.84
88.00	866.78
89.00	883.16
90.00	875.36
91.00	908.91
92.00	905.01
93.00	895.64
94.00	894.08
95.00	900.33
96.00	946.36
97.00	917.49
98.00	905.79
99.00	860.54
100.00	878.48
101.00	923.73
102.00	955.72
103.00	984.59
104.00	962.74
105.00	951.04
106.00	944.80
107.00	931.53
108.00	933.87
109.00	919.05
110.00	969.76
111.00	973.66
112.00	974.44
113.00	936.21
114.00	936.21
115.00	950.26
116.00	994.73
117.00	1035.30
118.00	1053.24
119.00	1037.64
120.00	1029.84
121.00	1029.06
122.00	1032.96
123.00	1020.47
124.00	999.41
125.00	998.63
126.00	1021.25
127.00	1048.56
128.00	1078.99
129.00	1086.79
130.00	1100.83
131.00	1101.61
132.00	1103.95
133.00	1086.01
134.00	1053.24
135.00	1083.67
136.00	1111.75
137.00	1131.26
138.00	1114.88
139.00	1116.44
140.00	1135.94
141.00	1146.08
142.00	1165.59
143.00	1173.39
144.00	1140.62
145.00	1132.04
146.00	1147.64
147.00	1157.00
148.00	1181.97
149.00	1160.13
150.00	1185.09
151.00	1161.69
152.00	1153.10
153.00	1161.69
154.00	1183.53
155.00	1215.52
156.00	1228.00
157.00	1237.36
158.00	1261.55
159.00	1260.77
160.00	1268.57
161.00	1259.99
162.00	1277.93
163.00	1281.83
164.00	1294.32
165.00	1299.00
166.00	1323.96
167.00	1330.20
168.00	1342.69
169.00	1327.08
170.00	1343.47
171.00	1352.05
172.00	1309.92
173.00	1316.16
174.00	1300.56
175.00	1335.67
176.00	1345.03
177.00	1320.06
178.00	1333.33
179.00	1334.11
180.00	1396.52
181.00	1403.54
182.00	1412.90
183.00	1419.14
184.00	1465.96
185.00	1446.45
186.00	1404.32
187.00	1404.32
188.00	1419.14
189.00	1445.67
190.00	1448.79
191.00	1472.98
192.00	1513.55
193.00	1539.29
194.00	1566.60
195.00	1582.20
196.00	1547.87
197.00	1525.25
198.00	1519.01
199.00	1519.79
200.00	1530.71
201.00	1509.65
202.00	1519.01
203.00	1494.82
204.00	1501.84
205.00	1522.91
206.00	1553.34
207.00	1555.68
208.00	1533.05
209.00	1534.61
210.00	1585.32
211.00	1613.41
212.00	1626.67
213.00	1612.63
214.00	1618.87
215.00	1639.16
216.00	1650.86
217.00	1676.60
218.00	1662.56
219.00	1678.94
220.00	1680.50
221.00	1729.66
222.00	1764.76
223.00	1793.63
224.00	1762.42
225.00	1745.26
226.00	1747.60
227.00	1791.29
228.00	1811.57
229.00	1777.25
230.00	1735.90
231.00	1708.59
232.00	1746.82
233.00	1779.59
234.00	1830.30
235.00	1860.73
236.00	1877.11
237.00	1894.27
238.00	1890.37
239.00	1902.86
240.00	1912.22
241.00	1930.16
242.00	1983.99
243.00	1962.15
244.00	1990.24
245.00	1954.35
246.00	2000.38
247.00	2027.68
248.00	2072.15
249.00	2083.08
250.00	2019.10
251.00	1964.49
252.00	1998.82
253.00	2055.77
254.00	2129.89
255.00	2104.92
256.00	2090.10
257.00	2070.59
258.00	2103.36
259.00	2135.35
260.00	2169.68
261.00	2156.41
262.00	2162.66
263.00	2189.18
264.00	2221.17
265.00	2231.31
266.00	2269.54
267.00	2273.44
268.00	2297.63
269.00	2270.32
270.00	2275.00
271.00	2322.59
272.00	2342.10
273.00	2368.62
274.00	2385.01
275.00	2392.03
276.00	2409.19
277.00	2404.51
278.00	2425.58
279.00	2435.72
280.00	2464.58
281.00	2433.38
282.00	2447.42
283.00	2465.36
284.00	2536.36
285.00	2552.74
286.00	2527.00
287.00	2491.11
288.00	2496.57
289.00	2515.30
290.00	2506.71
291.00	2500.47
292.00	2509.83
293.00	2577.71
294.00	2586.29
295.00	2622.18
296.00	2639.34
297.00	2682.25
298.00	2639.34
299.00	2599.56
300.00	2585.51
301.00	2601.90
302.00	2633.10
303.00	2628.42
304.00	2669.77
305.00	2705.66
306.00	2717.36
307.00	2680.69
308.00	2661.19
309.00	2654.17
310.00	2685.37
311.00	2710.34
312.00	2726.72
313.00	2736.87
314.00	2712.68
315.00	2728.28
316.00	2761.05
317.00	2805.52
318.00	2812.54
319.00	2758.71
320.00	2792.26
321.00	2838.29
322.00	2869.50
323.00	2857.79
324.00	2853.89
325.00	2883.54
326.00	2881.98
327.00	2877.30
328.00	2892.90
329.00	2920.21
330.00	2942.05
331.00	2974.04
332.00	2960.00
333.00	3021.63
334.00	3059.08
335.00	3126.18
336.00	3087.17
337.00	3077.02
338.00	3071.56
339.00	3075.46
340.00	3094.97
341.00	3114.47
342.00	3158.94
343.00	3178.45
344.00	3196.39
345.00	3203.41
346.00	3190.93
347.00	3172.21
348.00	3151.92
349.00	3147.24
350.00	3161.28
351.00	3249.44
352.00	3258.81
353.00	3290.79
354.00	3235.40
355.00	3292.35
356.00	3302.50
357.00	3355.55
358.00	3405.48
359.00	3442.15
360.00	3476.48
361.00	3499.88
362.00	3511.58
363.00	3504.56
364.00	3449.95
365.00	3435.13
366.00	3446.83
367.00	3456.19
368.00	3548.25
369.00	3559.17
370.00	3573.22
371.00	3475.70
372.00	3455.41
373.00	3469.45
374.00	3519.39
375.00	3552.93
376.00	3595.06
377.00	3630.95
378.00	3682.44
379.00	3712.87
380.00	3749.54
381.00	3729.25
382.00	3777.62
383.00	3789.33
384.00	3858.76
385.00	3820.53
386.00	3829.90
387.00	3842.38
388.00	3886.07
389.00	3973.45
390.00	4013.24
391.00	4046.01
392.00	3969.55
393.00	3950.82
394.00	3993.73
395.00	4072.53
396.00	4147.43
397.00	4149.77
398.00	4144.31
399.00	4165.37
400.00	4178.64
401.00	4203.60
402.00	4205.16
403.00	4280.06
404.00	4358.86
405.00	4396.31
406.00	4399.43
407.00	4348.72
408.00	4323.75
409.00	4309.71
410.00	4315.17
411.00	4333.11
412.00	4365.10
413.00	4411.91
414.00	4459.50
415.00	4425.17
416.00	4489.93
417.00	4482.91
418.00	4533.62
419.00	4537.52
420.00	4570.29
421.00	4571.07
422.00	4585.89
423.00	4603.05
424.00	4619.44
425.00	4581.21
426.00	4574.97
427.00	4552.34
428.00	4536.74
429.00	4556.24
430.00	4589.01
431.00	4620.22
432.00	4564.04
433.00	4553.12
434.00	4573.41
435.00	4691.99
436.00	4744.27
437.00	4778.59
438.00	4731.00
439.00	4761.43
440.00	4834.77
441.00	4924.49
442.00	4936.19
443.00	4909.66
444.00	4928.39
445.00	4956.47
446.00	4965.84
447.00	4919.03
448.00	4898.74
449.00	4887.82
450.00	4947.89
451.00	4973.64
452.00	5050.10
453.00	5061.02
454.00	5095.35
455.00	5097.69
456.00	5146.84
457.00	5204.57
458.00	5186.63
459.00	5153.86
460.00	5134.36
461.00	5192.09
462.00	5209.25
463.00	5240.46
464.00	5288.83
465.00	5412.88
466.00	5416.00
467.00	5433.16
468.00	5313.80
469.00	5339.54
470.00	5321.60
471.00	5394.93
472.00	5410.54
473.00	5406.64
474.00	5429.26
475.00	5437.06
476.00	5513.52
477.00	5573.60
478.00	5672.68
479.00	5718.71
480.00	5704.67
481.00	5724.95
482.00	5746.02
483.00	5728.85
484.00	5740.55
485.00	5721.83
486.00	5770.98
487.00	5788.92
488.00	5794.39
489.00	5881.77
490.00	5936.38
491.00	6041.70
492.00	6040.14
493.00	6040.92
494.00	6000.35
495.00	6026.10
496.00	6016.74
497.00	6047.16
498.00	6103.34
499.00	6134.54
500.00	6165.75
501.00	6143.91
502.00	6226.61
503.00	6256.25
504.00	6289.02
505.00	6239.09
506.00	6253.13
507.00	6321.01
508.00	6393.56
509.00	6462.22
510.00	6493.43
511.00	6484.84
512.00	6539.46
513.00	6511.37
514.00	6530.87
515.00	6498.89
516.00	6530.09
517.00	6552.72
518.00	6576.13
519.00	6606.55
520.00	6700.17
521.00	6726.70
522.00	6696.27
523.00	6653.36
524.00	6679.89
525.00	6740.74
526.00	6743.86
527.00	6825.00
528.00	6823.44
529.00	6860.11
530.00	6732.16
531.00	6769.61
532.00	6768.83
533.00	6843.73
534.00	6867.13
535.00	6998.98
536.00	7004.44
537.00	6977.92
538.00	6890.54
539.00	6941.25
540.00	7019.27
541.00	7072.32
542.00	7091.04
543.00	7150.34
544.00	7268.92
545.00	7346.94
546.00	7360.20
547.00	7370.35
548.00	7405.45
549.00	7450.71
550.00	7485.81
551.00	7578.65
552.00	7588.02
553.00	7553.69
554.00	7466.31
555.00	7479.57
556.00	7473.33
557.00	7558.37
558.00	7632.49
559.00	7732.35
560.00	7747.95
561.00	7766.68
562.00	7787.74
563.00	7736.25
564.00	7786.18
565.00	7882.92
566.00	8124.78
567.00	8131.02
568.00	8109.18
569.00	8067.05
570.00	8212.16
571.00	8330.75
572.00	8415.01
573.00	8376.00
574.00	8370.54
575.00	8378.34
576.00	8514.87
577.00	8581.96
578.00	8690.41
579.00	8614.73
580.00	8640.48
581.00	8582.74
582.00	8670.12
583.00	8767.65
584.00	8893.26
585.00	8984.54
586.00	8971.27
587.00	8970.49
588.00	8983.76
589.00	9123.41
590.00	9213.91
591.00	9304.41
592.00	9363.70
593.00	9478.39
594.00	9631.30
595.00	9729.61
596.00	9813.09
597.00	9868.48
598.00	9955.08
599.00	9987.85
600.00	10079.91
601.00	10075.23
602.00	10145.44
603.00	10190.69
604.00	10363.11
605.00	10473.90
606.00	10511.35
607.00	10537.87
608.00	10551.14
609.00	10686.11
610.00	10622.13
611.00	10679.08
612.00	10716.53
613.00	10931.86
614.00	11033.29
615.00	11079.32
616.00	11141.73
617.00	11258.76
618.00	11428.84
619.00	11538.06
620.00	11665.23
621.00	11702.68
622.00	11779.92
623.00	11979.64
624.00	12101.35
625.00	12183.27
626.00	12025.67
627.00	12051.42
628.00	12142.70
629.00	12459.45
630.00	12617.83
631.00	12710.67
632.00	12670.10
633.00	12798.05
634.00	12952.52
635.00	13117.14
636.00	13136.65
637.00	13247.43
638.00	13372.26
639.00	13619.58
640.00	13563.40
641.00	13643.76
642.00	13534.54
643.00	13674.97
644.00	13772.49
645.00	13854.41
646.00	14080.66
647.00	14104.07
648.00	14225.78
649.00	14311.60
650.00	14421.60
651.00	14640.05
652.00	14624.45
653.00	14725.09
654.00	14787.50
655.00	14873.32
656.00	15009.86
657.00	15177.59
658.00	15289.94
659.00	15378.10
660.00	15460.02
661.00	15704.99
662.00	15830.60
663.00	15919.54
664.00	15858.69
665.00	15946.07
666.00	16067.78
667.00	16291.69
668.00	16454.75
669.00	16498.44
670.00	16556.95
671.00	16544.47
672.00	16627.95
673.00	16763.70
674.00	16894.77
675.00	17012.57
676.00	16986.05
677.00	17050.80
678.00	17114.78
679.00	17397.98
680.00	17568.84
681.00	17756.08
682.00	17831.76
683.00	17987.80
684.00	18057.23
685.00	18181.28
686.00	18305.33
687.00	18508.96
688.00	18624.42
689.00	18776.56
690.00	18860.04
691.00	19011.39
692.00	18992.67
693.00	19014.51
694.00	18997.35
695.00	19130.76
696.00	19311.76
697.00	19446.73
698.00	19534.89
699.00	19381.98
700.00	19335.17
701.00	19424.11
702.00	19734.62
703.00	19834.48
704.00	19875.05
705.00	19961.65
706.00	20166.84
707.00	20324.43
708.00	20384.51
709.00	20551.46
710.00	20699.70
711.00	20910.35
712.00	21060.92
713.00	21133.48
714.00	21242.70
715.00	21219.30
716.00	21294.97
717.00	21473.64
718.00	21618.75
719.00	21653.86
720.00	21600.02
721.00	21501.72
722.00	21620.31
723.00	21698.33
724.00	22001.82
725.00	22081.39
726.00	22008.84
727.00	22166.43
728.00	22259.27
729.00	22498.01
730.00	22390.34
731.00	22393.47
732.00	22384.10
733.00	22409.85
734.00	22612.70
735.00	22884.98
736.00	23014.49
737.00	22967.68
738.00	22944.27
739.00	23046.48
740.00	23142.44
741.00	23321.88
742.00	23417.06
743.00	23522.38
744.00	23521.60
745.00	23610.54
746.00	23727.57
747.00	23842.26
748.00	23935.10
749.00	23997.51
750.00	24041.98
751.00	23977.23
752.00	24063.05
753.00	23883.61
754.00	23995.95
755.00	24042.76
756.00	24257.31
757.00	24297.10
758.00	24350.93
759.00	24578.75
760.00	24737.90
761.00	24924.36
762.00	24968.05
763.00	25218.49
764.00	25353.46
765.00	25582.06
766.00	25745.11
767.00	25770.08
768.00	25671.00
769.00	25624.97
770.00	25855.12
771.00	26090.73
772.00	26246.77
773.00	26264.71
774.00	26287.34
775.00	26293.58
776.00	26157.05
777.00	26256.91
778.00	26312.30
779.00	26542.46
780.00	26603.31
781.00	26832.68
782.00	26972.33
783.00	27042.55
784.00	26998.86
785.00	26999.64
786.00	27153.34
787.00	27295.33
788.00	27593.36
789.00	27595.70
790.00	27580.87
791.00	27545.76
792.00	27644.07
793.00	27785.28
794.00	27784.50
795.00	27772.80
796.00	27811.81
797.00	27981.10
798.00	28203.46
799.00	28332.96
800.00	28424.25
801.00	28577.94
802.00	28741.78
803.00	28709.79
804.00	28620.07
805.00	28666.88
806.00	28952.43
807.00	29033.57
808.00	29081.94
809.00	29046.83
810.00	29294.14
811.00	29516.50
812.00	29514.16
813.00	29451.74
814.00	29477.49
815.00	29899.56
816.00	30190.57
817.00	30342.70
818.00	30271.71
819.00	30227.24
820.00	30104.75
821.00	30192.13
822.00	30328.66
823.00	30506.54
824.00	30383.27
825.00	30365.33
826.00	30275.61
827.00	30573.64
828.00	30694.57
829.00	30895.85
830.00	30936.42
831.00	31033.94
832.00	31260.19
833.00	31304.67
834.00	31423.25
835.00	31414.67
836.00	31392.05
837.00	31398.29
838.00	31537.16
839.00	31780.57
840.00	31903.06
841.00	31920.23
842.00	31882.00
843.00	32049.74
844.00	32167.54
845.00	32435.14
846.00	32382.87
847.00	32440.61
848.00	32411.74
849.00	32637.21
850.00	32652.81
851.00	32734.73
852.00	32647.35
853.00	32643.45
854.00	32632.53
855.00	32631.75
856.00	32803.39
857.00	32826.79
858.00	32903.25
859.00	32893.89
860.00	32979.71
861.00	33183.34
862.00	33393.98
863.00	33538.32
864.00	33634.28
865.00	33449.38
866.00	33688.89
867.00	33791.09
868.00	34130.47
869.00	34278.71
870.00	34515.10
871.00	34665.67
872.00	34653.97
873.00	34603.26
874.00	34591.56
875.00	34499.50
876.00	34363.75
877.00	34455.03
878.00	34582.20
879.00	34802.21
880.00	34825.61
881.00	34756.18
882.00	34698.44
883.00	34629.01
884.00	34586.88
885.00	34520.56
886.00	34690.64
887.00	35042.50
888.00	35283.58
889.00	35297.62
890.00	35212.58
891.00	35198.54
892.00	35416.99
893.00	35448.19
894.00	35637.78
895.00	35672.88
896.00	35905.38
897.00	35878.85
898.00	35904.60
899.00	35974.81
900.00	36205.75
901.00	36493.63
902.00	36497.53
903.00	36528.74
904.00	36500.65
905.00	36765.14
906.00	36893.08
907.00	36826.77
908.00	36522.50
909.00	36741.73
910.00	36666.05
911.00	36802.58
912.00	36396.11
913.00	36474.91
914.00	36509.24
915.00	36825.21
916.00	36943.02
917.00	37067.06
918.00	37085.01
919.00	36964.86
920.00	37004.65
921.00	37156.78
922.00	37490.70
923.00	37596.03
924.00	37499.28
925.00	37471.98
926.00	37563.26
927.00	37571.84
928.00	37570.28
929.00	37649.08
930.00	37880.79
931.00	38107.04
932.00	38310.67
933.00	38382.45
934.00	38311.45
935.00	38193.64
936.00	38209.25
937.00	38178.04
938.00	38174.92
939.00	38295.85
940.00	38512.74
941.00	38692.18
942.00	38520.54
943.00	38635.22
944.00	38509.61
945.00	38692.18
946.00	38701.54
947.00	38802.18
948.00	38854.45
949.00	38790.48
950.00	38882.54
951.00	38806.86
952.00	38895.80
953.00	38849.77
954.00	38909.85
955.00	38985.52
956.00	39092.41
957.00	39253.12
958.00	39550.37
959.00	39776.62
960.00	40045.01
961.00	39941.24
962.00	40011.46
963.00	39951.38
964.00	40130.83
965.00	40116.78
966.00	40304.81
967.00	40439.00
968.00	40601.27
969.00	40572.41
970.00	40630.14
971.00	40845.47
972.00	41048.32
973.00	40989.02
974.00	40954.69
975.00	41033.49
976.00	41106.05
977.00	41006.97
978.00	40623.12
979.00	40525.60
980.00	40466.30
981.00	40944.55
982.00	41137.26
983.00	41390.81
984.00	41534.37
985.00	41474.29
986.00	41502.38
987.00	41191.87
988.00	41398.62
989.00	41251.94
990.00	41435.28
991.00	41228.54
992.00	41339.32
993.00	41212.93
994.00	41514.08
995.00	41697.42
996.00	42020.42
997.00	42253.69
998.00	42343.41
999.00	42522.07
1000.00	42611.01
1001.00	42818.54
1002.00	42749.88
1003.00	42525.97
1004.00	42626.62
1005.00	42567.32
1006.00	42715.56
1007.00	42609.45
1008.00	42948.05
1009.00	43005.78
1010.00	43038.55
1011.00	42777.19
1012.00	42795.92
1013.00	42855.21
1014.00	43062.74
1015.00	42994.08
1016.00	42932.45
1017.00	43153.24
1018.00	43469.99
1019.00	43787.52
1020.00	43504.32
1021.00	43484.81
1022.00	43341.26
1023.00	43406.02
1024.00	43303.81
1025.00	43313.95
1026.00	43480.91
1027.00	43733.69
1028.00	44036.40
1029.00	44181.51
1030.00	44187.75
1031.00	44184.63
1032.00	44262.65
1033.00	44520.11
1034.00	44587.99
1035.00	44469.40
1036.00	44396.84
1037.00	44335.99
1038.00	44499.83
1039.00	44307.12
1040.00	44404.64
1041.00	44551.32
1042.00	44815.02
1043.00	45024.89
1044.00	45009.28
1045.00	45028.79
1046.00	44986.66
1047.00	44838.42
1048.00	44750.26
1049.00	44789.27
1050.00	45039.71
1051.00	45288.59
1052.00	45435.26
1053.00	45490.65
1054.00	45564.77
1055.00	45586.61
1056.00	45730.17
1057.00	45808.97
1058.00	45855.00
1059.00	45765.28
1060.00	45762.93
1061.00	45701.30
1062.00	45907.27
1063.00	46034.44
1064.00	46039.12
1065.00	45943.16
1066.00	45977.48
1067.00	46109.33
1068.00	46199.05
1069.00	46124.16
1070.00	46036.00
1071.00	46004.79
1072.00	46142.10
1073.00	46422.97
1074.00	46600.85
1075.00	46669.50
1076.00	46756.88
1077.00	46660.14
1078.00	46595.38
1079.00	46405.80
1080.00	46429.99
1081.00	46486.16
1082.00	46561.84
1083.00	46548.57
1084.00	46440.91
1085.00	46372.25
1086.00	46513.47
1087.00	46758.44
1088.00	46831.00
1089.00	46863.77
1090.00	46882.49
1091.00	47173.50
1092.00	47337.33
1093.00	47383.37
1094.00	47480.11
1095.00	47527.70
1096.00	47505.07
1097.00	47352.94
1098.00	47432.52
1099.00	47548.76
1100.00	47508.97
1101.00	47406.77
1102.00	47529.26
1103.00	47706.36
1104.00	47675.93
1105.00	47679.83
1106.00	47699.34
1107.00	48014.53
1108.00	48058.22
1109.00	48185.39
1110.00	48186.17
1111.00	48165.10
1112.00	48129.22
1113.00	47980.98
1114.00	47844.45
1115.00	47771.11
1116.00	47665.79
1117.00	47771.89
1118.00	47789.84
1119.00	48012.19
1120.00	47945.09
1121.00	48005.17
1122.00	48022.33
1123.00	47995.81
1124.00	47951.34
1125.00	47781.26
1126.00	47857.71
1127.00	48073.04
1128.00	48201.77
1129.00	48263.41
1130.00	48238.44
1131.00	48355.47
1132.00	48566.90
1133.00	48488.10
1134.00	48397.60
1135.00	48279.79
1136.00	48282.91
1137.00	48395.26
1138.00	48395.26
1139.00	48495.12
1140.00	48485.76
1141.00	48541.93
1142.00	48704.99
1143.00	48651.94
1144.00	48665.20
1145.00	48502.14
1146.00	48702.65
1147.00	48621.51
1148.00	48633.21
1149.00	48693.29
1150.00	48814.99
1151.00	48956.99
1152.00	48864.92
1153.00	49010.82
1154.00	48982.73
1155.00	48964.01
1156.00	48781.45
1157.00	48743.22
1158.00	48765.84
1159.00	48965.57
1160.00	49183.24
1161.00	49285.44
1162.00	49289.34
1163.00	49374.38
1164.00	49471.90
1165.00	49537.44
1166.00	49363.46
1167.00	49251.89
1168.00	49195.72
1169.00	49155.15
1170.00	49053.73
1171.00	48950.74
1172.00	48813.43
1173.00	48703.43
1174.00	48694.07
1175.00	48822.01
1176.00	48996.77
1177.00	49148.91
1178.00	49146.57
1179.00	49066.21
1180.00	49163.73
1181.00	49299.48
1182.00	49591.27
1183.00	49556.94
1184.00	49637.30
1185.00	49595.95
1186.00	49617.02
1187.00	49663.83
1188.00	49576.45
1189.00	49588.93
1190.00	49503.89
1191.00	49642.76
1192.00	49449.28
1193.00	49400.13
1194.00	49299.48
1195.00	49523.40
1196.00	49521.83
1197.00	49515.59
1198.00	49521.05
1199.00	49530.42
1200.00	49560.84
1201.00	49565.52
1202.00	49689.57
1203.00	49837.81
1204.00	49989.94
1205.00	50074.20
1206.00	50057.82
1207.00	49998.52
1208.00	49954.05
1209.00	49759.79
1210.00	49661.49
1211.00	49486.73
1212.00	49706.74
1213.00	49825.32
1214.00	49739.50
1215.00	49594.39
1216.00	49491.41
1217.00	49666.95
1218.00	49759.79
1219.00	49720.00
1220.00	49762.13
1221.00	49609.99
1222.00	49668.51
1223.00	49759.01
1224.00	49757.45
1225.00	49707.52
1226.00	49576.45
1227.00	49765.25
1228.00	49801.92
1229.00	49878.38
1230.00	49966.54
1231.00	50121.01
1232.00	50241.94
1233.00	50303.57
1234.00	50302.79
1235.00	50248.96
1236.00	50263.78
1237.00	50250.52
1238.00	50288.75
1239.00	50279.39
1240.00	50383.15
1241.00	50547.77
1242.00	50559.47
1243.00	50587.56
1244.00	50628.91
1245.00	50663.24
1246.00	50746.72
1247.00	50757.64
1248.00	50841.12
1249.00	50923.04
1250.00	50927.72
1251.00	50827.07
1252.00	50617.99
1253.00	50632.03
1254.00	50700.68
1255.00	50628.91
1256.00	50609.40
1257.00	50581.32
1258.00	50810.69
1259.00	50555.57
1260.00	50512.66
1261.00	50454.93
1262.00	50696.00
1263.00	50989.35
1264.00	51219.50
1265.00	51400.50
1266.00	51431.71
1267.00	51608.03
1268.00	51760.95
1269.00	51704.77
1270.00	51508.17
1271.00	51350.57
1272.00	51437.17
1273.00	51334.19
1274.00	51297.52
1275.00	51161.77
1276.00	51054.11
1277.00	51012.76
1278.00	51148.51
1279.00	51334.19
1280.00	51323.27
1281.00	51341.21
1282.00	51386.46
1283.00	51459.02
1284.00	51301.42
1285.00	51412.21
1286.00	51499.59
1287.00	51630.66
1288.00	51654.06
1289.00	51760.17
1290.00	52031.67
1291.00	52156.50
1292.00	52203.31
1293.00	52012.16
1294.00	51945.85
1295.00	51834.28
1296.00	51820.24
1297.00	51771.09
1298.00	51622.86
1299.00	51574.48
1300.00	51534.70
1301.00	51847.55
1302.00	52031.67
1303.00	52147.92
1304.00	52134.65
1305.00	52098.76
1306.00	51979.40
1307.00	51927.91
1308.00	51855.35
1309.00	51792.93
1310.00	51763.29
1311.00	51755.49
1312.00	52029.33
1313.00	52122.95
1314.00	52266.50
1315.00	52243.88
1316.00	52297.71
1317.00	52342.18
1318.00	52345.30
1319.00	52305.51
1320.00	52328.14
1321.00	52365.59
1322.00	52481.83
1323.00	52486.51
1324.00	52472.47
1325.00	52404.59
1326.00	52452.19
1327.00	52637.09
1328.00	52702.62
1329.00	52896.11
1330.00	52918.73
1331.00	53109.10
1332.00	52941.36
1333.00	52792.34
1334.00	52484.17
1335.00	52358.56
1336.00	52294.59
1337.00	52441.26
1338.00	52431.12
1339.00	52491.97
1340.00	52356.22
1341.00	52451.41
1342.00	52407.72
1343.00	52681.56
1344.00	52713.55
1345.00	52799.36
1346.00	52635.53
1347.00	52782.20
1348.00	52739.29
1349.00	52768.16
1350.00	52584.82
1351.00	52579.35
1352.00	52436.58
1353.00	52378.85
1354.00	52357.78
1355.00	52534.10
1356.00	52618.36
1357.00	52795.46
1358.00	52819.65
1359.00	52952.28
1360.00	52874.26
1361.00	52946.82
1362.00	52747.09
1363.00	52621.48
1364.00	52477.93
1365.00	52594.96
1366.00	52822.77
1367.00	52871.14
1368.00	52949.94
1369.00	52892.99
1370.00	52934.34
1371.00	52939.02
1372.00	52974.91
1373.00	53105.20
1374.00	53091.15
1375.00	53102.85
1376.00	52941.36
1377.00	52715.11
1378.00	52523.96
1379.00	52518.50
1380.00	52684.68
1381.00	52861.78
1382.00	52871.14
1383.00	52790.00
1384.00	52545.81
1385.00	52342.18
1386.00	52154.94
1387.00	52276.65
1388.00	52220.47
1389.00	52307.07
1390.00	52310.19
1391.00	52441.26
1392.00	52498.22
1393.00	52474.03
1394.00	52586.38
1395.00	52748.65
1396.00	52818.87
1397.00	52687.02
1398.00	52530.98
1399.00	52453.75
1400.00	52534.88
1401.00	52546.59
1402.00	52542.69
1403.00	52556.73
1404.00	52548.93
1405.00	52601.98
1406.00	52674.54
1407.00	52770.50
1408.00	52807.95
1409.00	52839.15
1410.00	52916.39
1411.00	53105.20
1412.00	53162.93
1413.00	53185.55
1414.00	53209.74
1415.00	53225.34
1416.00	53253.43
1417.00	53058.38
1418.00	52982.71
1419.00	52807.95
1420.00	52900.01
1421.00	52873.48
1422.00	52924.97
1423.00	52767.38
1424.00	52855.54
1425.00	52875.04
1426.00	52892.21
1427.00	52722.13
1428.00	52704.18
1429.00	52613.68
1430.00	52587.94
1431.00	52608.22
1432.00	52662.83
1433.00	52520.84
1434.00	52525.52
1435.00	52461.55
1436.00	52491.97
1437.00	52315.65
1438.00	52322.68
1439.00	52474.81
1440.00	52531.76
1441.00	52607.44
1442.00	52514.60
1443.00	52455.31
1444.00	52296.15
1445.00	52316.43
1446.00	52413.18
1447.00	52491.19
1448.00	52509.14
1449.00	52545.81
1450.00	52704.18
1451.00	52828.23
1452.00	52890.65
1453.00	52939.02
1454.00	52813.41
1455.00	52683.12
1456.00	52512.26
1457.00	52537.23
1458.00	52609.00
1459.00	52541.91
1460.00	52495.10
1461.00	52354.66
1462.00	52293.03
1463.00	52396.79
1464.00	52518.50
1465.00	52588.72
1466.00	52521.62
1467.00	52441.26
1468.00	52538.79
1469.00	52505.24
1470.00	52583.26
1471.00	52580.92
1472.00	52551.27
1473.00	52380.41
1474.00	52311.75
1475.00	52383.53
1476.00	52474.03
1477.00	52480.27
1478.00	52403.03
1479.00	52403.81
1480.00	52301.61
1481.00	52157.28
1482.00	52155.72
1483.00	52117.49
1484.00	52177.56
1485.00	52063.66
1486.00	52065.22
1487.00	51966.91
1488.00	51832.72
1489.00	51725.84
1490.00	51761.73
1491.00	52007.48
1492.00	52101.89
1493.00	52164.30
1494.00	52103.45
1495.00	52158.84
1496.00	52192.39
1497.00	52140.89
1498.00	52075.36
1499.00	52173.66
1500.00	52212.67
1501.00	52204.09
1502.00	52073.02
1503.00	51991.10
1504.00	51977.84
1505.00	51952.87
1506.00	51867.05
1507.00	51861.59
1508.00	51799.18
1509.00	51857.69
1510.00	51794.49
1511.00	51945.07
1512.00	51922.44
1513.00	52035.57
1514.00	51865.49
1515.00	51955.21
1516.00	51894.36
1517.00	51782.79
1518.00	51657.96
1519.00	51632.22
1520.00	51767.19
1521.00	51763.29
1522.00	51781.23
1523.00	51835.84
1524.00	51864.71
1525.00	51718.82
1526.00	51608.03
1527.00	51560.44
1528.00	51782.79
1529.00	51747.68
1530.00	51739.10
1531.00	51565.90
1532.00	51718.04
1533.00	51718.82
1534.00	51715.70
1535.00	51736.76
1536.00	51938.05
1537.00	52112.03
1538.00	51971.60
1539.00	51744.56
1540.00	51562.78
1541.00	51626.76
1542.00	51878.75
1543.00	52030.11
1544.00	52110.47
1545.00	51929.47
1546.00	51888.12
1547.00	51619.73
1548.00	51515.19
1549.00	51385.68
1550.00	51448.10
1551.00	51494.13
1552.00	51538.60
1553.00	51487.10
1554.00	51552.64
1555.00	51709.46
1556.00	51806.98
1557.00	51685.27
1558.00	51505.83
1559.00	51384.90
1560.00	51389.58
1561.00	51330.29
1562.00	51321.71
1563.00	51239.79
1564.00	51055.67
1565.00	51067.37
1566.00	50955.02
1567.00	50991.69
1568.00	50834.88
1569.00	50857.50
1570.00	50770.90
1571.00	50744.37
1572.00	50705.37
1573.00	50790.41
1574.00	50962.04
1575.00	50999.49
1576.00	50991.69
1577.00	50874.66
1578.00	50884.03
1579.00	50809.91
1580.00	50731.89
1581.00	50724.09
1582.00	50893.39
1583.00	51066.59
1584.00	51073.61
1585.00	50949.56
1586.00	50753.74
1587.00	50660.12
1588.00	50706.15
1589.00	50830.97
1590.00	50860.62
1591.00	50784.16
1592.00	50707.71
1593.00	50656.21
1594.00	50723.31
1595.00	50668.70
1596.00	50834.10
1597.00	50739.69
1598.00	50862.96
1599.00	50831.75
1600.00	50896.51
1601.00	50738.91
1602.00	50734.23
1603.00	50751.40
1604.00	50871.54
1605.00	50716.29
1606.00	50615.65
1607.00	50316.84
1608.00	50194.35
1609.00	50092.93
1610.00	50191.23
1611.00	50359.75
1612.00	50485.36
1613.00	50557.91
1614.00	50460.39
1615.00	50327.76
1616.00	50337.12
1617.00	50593.02
1618.00	50884.81
1619.00	50901.97
1620.00	50724.09
1621.00	50613.30
1622.00	50885.59
1623.00	50802.89
1624.00	50717.07
1625.00	50383.15
1626.00	50449.47
1627.00	50328.54
1628.00	50392.51
1629.00	50302.79
1630.00	50397.98
1631.00	50487.70
1632.00	50759.20
1633.00	50907.43
1634.00	50834.88
1635.00	50800.55
1636.00	50654.65
1637.00	50627.35
1638.00	50391.73
1639.00	50244.28
1640.00	50115.55
1641.00	50117.11
1642.00	50114.77
1643.00	50108.53
1644.00	50072.64
1645.00	50126.47
1646.00	50131.15
1647.00	50014.91
1648.00	50044.55
1649.00	49922.85
1650.00	49913.48
1651.00	49785.54
1652.00	49956.39
1653.00	50076.54
1654.00	50045.33
1655.00	50089.80
1656.00	50009.45
1657.00	49974.34
1658.00	49785.54
1659.00	49660.71
1660.00	49750.43
1661.00	49695.03
1662.00	49730.92
1663.00	49699.72
1664.00	49812.84
1665.00	50065.62
1666.00	50052.36
1667.00	50020.37
1668.00	49937.67
1669.00	49815.96
1670.00	49718.44
1671.00	49633.40
1672.00	49680.99
1673.00	49680.21
1674.00	49616.24
1675.00	49671.63
1676.00	49744.97
1677.00	49663.83
1678.00	49535.10
1679.00	49386.08
1680.00	49322.11
1681.00	49205.86
1682.00	49111.46
1683.00	49170.75
1684.00	49170.75
1685.00	49194.16
1686.00	49095.08
1687.00	49217.57
1688.00	49311.19
1689.00	49339.27
1690.00	49059.97
1691.00	48851.66
1692.00	48673.78
1693.00	48577.04
1694.00	48405.40
1695.00	48406.96
1696.00	48514.62
1697.00	48604.34
1698.00	48705.77
1699.00	48857.12
1700.00	49234.73
1701.00	49392.33
1702.00	49522.62
1703.00	49322.89
1704.00	49237.85
1705.00	49120.04
1706.00	49018.62
1707.00	48939.82
1708.00	48877.41
1709.00	48929.68
1710.00	48835.28
1711.00	48583.28
1712.00	48236.10
1713.00	47989.56
1714.00	47777.36
1715.00	47803.10
1716.00	47879.56
1717.00	48093.33
1718.00	48166.66
1719.00	48069.92
1720.00	47966.16
1721.00	47906.08
1722.00	48107.37
1723.00	48373.41
1724.00	48392.14
1725.00	48289.15
1726.00	47957.58
1727.00	47869.42
1728.00	47666.57
1729.00	47579.19
1730.00	47477.77
1731.00	47452.80
1732.00	47274.14
1733.00	46940.22
1734.00	46754.54
1735.00	46694.47
1736.00	46807.59
1737.00	46675.74
1738.00	46656.24
1739.00	46681.98
1740.00	46516.59
1741.00	46417.50
1742.00	46131.18
1743.00	46122.60
1744.00	46092.17
1745.00	46112.45
1746.00	46173.31
1747.00	45882.30
1748.00	45871.38
1749.00	45777.76
1750.00	45863.58
1751.00	45562.43
1752.00	45252.70
1753.00	44901.62
1754.00	44805.66
1755.00	44758.06
1756.00	44810.34
1757.00	44712.81
1758.00	44580.18
1759.00	44489.68
1760.00	44527.13
1761.00	44522.45
1762.00	44529.47
1763.00	44391.38
1764.00	44449.11
1765.00	44337.55
1766.00	44204.14
1767.00	44049.66
1768.00	43970.86
1769.00	44041.86
1770.00	44142.50
1771.00	44272.01
1772.00	44314.92
1773.00	44131.58
1774.00	44034.84
1775.00	43920.15
1776.00	44008.31
1777.00	44009.09
1778.00	43949.80
1779.00	43687.66
1780.00	43328.00
1781.00	43228.13
1782.00	43228.91
1783.00	43271.04
1784.00	43214.09
1785.00	43160.26
1786.00	43071.32
1787.00	42878.61
1788.00	42551.72
1789.00	42345.75
1790.00	41947.86
1791.00	41606.92
1792.00	41312.80
1793.00	41300.31
1794.00	41354.93
1795.00	41304.21
1796.00	41154.42
1797.00	41061.58
1798.00	40926.61
1799.00	40731.56
1800.00	40499.07
1801.00	40288.42
1802.00	40190.90
1803.00	40016.14
1804.00	39885.85
1805.00	39657.26
1806.00	39505.12
1807.00	39513.70
1808.00	39509.02
1809.00	39489.52
1810.00	39518.39
1811.00	39419.30
1812.00	39349.09
1813.00	39117.37
1814.00	39093.97
1815.00	38997.23
1816.00	38934.81
1817.00	38667.21
1818.00	38472.95
1819.00	38171.80
1820.00	37870.65
1821.00	37716.95
1822.00	37669.36
1823.00	37703.69
1824.00	37557.02
1825.00	37365.87
1826.00	37211.40
1827.00	37152.88
1828.00	36930.53
1829.00	37017.13
1830.00	36488.95
1831.00	36474.91
1832.00	36168.30
1833.00	36208.09
1834.00	36026.31
1835.00	35739.98
1836.00	35405.28
1837.00	35108.04
1838.00	34934.06
1839.00	34885.68
1840.00	34826.39
1841.00	34657.87
1842.00	34539.29
1843.00	34197.57
1844.00	33866.77
1845.00	33748.18
1846.00	33436.11
1847.00	33403.35
1848.00	33050.70
1849.00	32929.00
1850.00	32723.03
1851.00	32464.79
1852.00	32346.98
1853.00	32071.58
1854.00	31979.52
1855.00	31860.15
1856.00	31752.49
1857.00	31598.79
1858.00	31484.11
1859.00	31186.86
1860.00	31138.49
1861.00	30980.11
1862.00	30976.21
1863.00	30817.83
1864.00	30605.63
1865.00	30501.08
1866.00	30344.27
1867.00	30331.78
1868.00	30076.66
1869.00	29855.09
1870.00	29390.11
1871.00	29195.84
1872.00	28864.27
1873.00	28705.11
1874.00	28503.04
1875.00	28496.02
1876.00	28471.84
1877.00	28340.77
1878.00	28006.07
1879.00	27647.19
1880.00	27422.50
1881.00	27158.02
1882.00	27034.75
1883.00	26848.29
1884.00	26792.11
1885.00	26602.53
1886.00	26391.10
1887.00	26203.86
1888.00	26011.93
1889.00	25926.11
1890.00	25756.82
1891.00	25639.01
1892.00	25448.64
1893.00	25388.57
1894.00	25185.72
1895.00	24956.35
1896.00	24790.95
1897.00	24556.12
1898.00	24517.89
1899.00	24367.32
1900.00	24371.22
1901.00	24175.39
1902.00	24015.46
1903.00	23902.33
1904.00	23773.60
1905.00	23630.83
1906.00	23466.21
1907.00	23285.21
1908.00	23277.41
1909.00	23211.87
1910.00	23118.25
1911.00	22836.61
1912.00	22542.48
1913.00	22290.48
1914.00	22155.51
1915.00	22095.44
1916.00	22094.66
1917.00	21984.65
1918.00	21667.90
1919.00	21475.98
1920.00	21212.28
1921.00	21027.37
1922.00	20799.56
1923.00	20576.43
1924.00	20524.16
1925.00	20457.06
1926.00	20406.35
1927.00	20228.47
1928.00	20092.72
1929.00	19953.85
1930.00	19936.68
1931.00	19935.90
1932.00	19786.11
1933.00	19590.28
1934.00	19268.85
1935.00	19244.66
1936.00	19137.00
1937.00	18957.56
1938.00	18716.48
1939.00	18558.89
1940.00	18524.56
1941.00	18427.82
1942.00	18313.91
1943.00	18146.17
1944.00	17998.72
1945.00	17806.80
1946.00	17667.92
1947.00	17571.96
1948.00	17553.24
1949.00	17467.42
1950.00	17320.74
1951.00	17219.32
1952.00	17067.97
1953.00	16988.39
1954.00	16881.50
1955.00	16812.85
1956.00	16684.90
1957.00	16474.25
1958.00	16274.52
1959.00	16102.11
1960.00	15925.79
1961.00	15899.26
1962.00	15872.73
1963.00	15872.73
1964.00	15731.52
1965.00	15605.91
1966.00	15449.10
1967.00	15445.98
1968.00	15360.94
1969.00	15285.26
1970.00	15073.83
1971.00	14969.29
1972.00	14799.99
1973.00	14819.49
1974.00	14782.04
1975.00	14755.52
1976.00	14487.14
1977.00	14249.18
1978.00	14163.36
1979.00	14056.48
1980.00	13958.17
1981.00	13814.62
1982.00	13803.70
1983.00	13715.54
1984.00	13687.45
1985.00	13667.95
1986.00	13691.35
1987.00	13565.74
1988.00	13399.57
1989.00	13255.23
1990.00	13181.12
1991.00	13058.63
1992.00	12952.52
1993.00	12828.48
1994.00	12766.84
1995.00	12698.97
1996.00	12659.96
1997.00	12628.75
1998.00	12542.15
1999.00	12448.53
2000.00	12308.10
2001.00	12275.33
2002.00	12249.58
2003.00	12192.63
2004.00	12129.44
2005.00	11946.09
2006.00	11856.37
2007.00	11717.50
2008.00	11688.64
2009.00	11598.13
2010.00	11537.28
2011.00	11488.91
2012.00	11458.48
2013.00	11429.62
2014.00	11329.75
2015.00	11208.83
2016.00	11148.75
2017.00	11110.52
2018.00	11148.75
2019.00	11090.24
2020.00	11099.60
2021.00	11068.39
2022.00	11016.12
2023.00	10891.29
2024.00	10800.79
2025.00	10633.83
2026.00	10541.77
2027.00	10445.03
2028.00	10440.35
2029.00	10456.73
2030.00	10421.63
2031.00	10375.59
2032.00	10324.10
2033.00	10223.46
2034.00	10196.93
2035.00	10011.25
2036.00	9964.44
2037.00	9861.46
2038.00	9865.36
2039.00	9795.92
2040.00	9741.31
2041.00	9714.00
2042.00	9686.70
2043.00	9577.47
2044.00	9559.53
2045.00	9525.20
2046.00	9525.98
2047.00	9406.61
>>>>>End Processed Spectral Data<<<<<
