SpectraSuite Data File
++++++++++++++++++++++++++++++++++++
Date: Thu Nov 16 14:14:35 EST 2017
User: cheriyan
Dark Spectrum Present: No
Reference Spectrum Present: No
Number of Sampled Component Spectra: 1
Spectrometers: USB2+H05261
Integration Time (usec): 100000 (USB2+H05261)
Spectra Averaged: 1 (USB2+H05261)
Boxcar Smoothing: 1 (USB2+H05261)
Correct for Electrical Dark: No (USB2+H05261)
Strobe/Lamp Enabled: No (USB2+H05261)
Correct for Detector Non-linearity: No (USB2+H05261)
Correct for Stray Light: No (USB2+H05261)
Number of Pixels in Processed Spectrum: 2048
>>>>>Begin Processed Spectral Data<<<<<
0.00	332.36
1.00	332.36
2.00	314.41
3.00	256.68
4.00	230.15
5.00	209.09
6.00	218.45
7.00	214.55
8.00	234.83
9.00	262.14
10.00	244.98
11.00	249.66
12.00	225.47
13.00	237.95
14.00	210.65
15.00	220.01
16.00	222.35
17.00	239.51
18.00	241.86
19.00	241.86
20.00	241.86
21.00	249.66
22.00	269.16
23.00	310.51
24.00	415.84
25.00	532.86
26.00	635.85
27.00	667.05
28.00	653.79
29.00	626.48
30.00	604.64
31.00	610.88
32.00	631.16
33.00	656.91
34.00	690.46
35.00	701.38
36.00	702.16
37.00	696.70
38.00	706.06
39.00	745.07
40.00	768.48
41.00	800.46
42.00	780.96
43.00	742.73
44.00	688.12
45.00	685.78
46.00	709.18
47.00	734.93
48.00	744.29
49.00	751.31
50.00	758.33
51.00	763.01
52.00	809.83
53.00	827.77
54.00	819.97
55.00	766.14
56.00	744.29
57.00	751.31
58.00	781.74
59.00	791.10
60.00	798.12
61.00	765.36
62.00	764.57
63.00	756.77
64.00	741.95
65.00	745.07
66.00	766.14
67.00	813.73
68.00	809.83
69.00	786.42
70.00	780.18
71.00	791.10
72.00	800.46
73.00	791.88
74.00	773.94
75.00	785.64
76.00	798.12
77.00	810.61
78.00	808.26
79.00	833.23
80.00	874.58
81.00	836.35
82.00	818.41
83.00	810.61
84.00	873.80
85.00	861.32
86.00	832.45
87.00	843.37
88.00	857.42
89.00	885.50
90.00	852.74
91.00	874.58
92.00	873.02
93.00	905.79
94.00	907.35
95.00	887.06
96.00	885.50
97.00	873.02
98.00	905.79
99.00	903.45
100.00	917.49
101.00	922.17
102.00	935.43
103.00	961.18
104.00	976.78
105.00	976.78
106.00	947.92
107.00	945.58
108.00	950.26
109.00	974.44
110.00	969.76
111.00	958.06
112.00	940.12
113.00	929.19
114.00	908.13
115.00	931.53
116.00	959.62
117.00	1019.69
118.00	1031.40
119.00	1052.46
120.00	1022.03
121.00	1010.33
122.00	983.02
123.00	994.73
124.00	1029.84
125.00	1057.14
126.00	1070.40
127.00	1039.20
128.00	1024.37
129.00	1037.64
130.00	1057.14
131.00	1069.62
132.00	1059.48
133.00	1064.16
134.00	1076.65
135.00	1096.15
136.00	1106.29
137.00	1078.99
138.00	1088.35
139.00	1086.79
140.00	1114.10
141.00	1093.03
142.00	1115.66
143.00	1124.24
144.00	1156.22
145.00	1124.24
146.00	1117.22
147.00	1130.48
148.00	1164.81
149.00	1199.91
150.00	1199.13
151.00	1211.62
152.00	1224.10
153.00	1243.60
154.00	1249.85
155.00	1265.45
156.00	1257.65
157.00	1249.85
158.00	1228.78
159.00	1214.74
160.00	1217.08
161.00	1213.18
162.00	1245.95
163.00	1218.64
164.00	1226.44
165.00	1219.42
166.00	1263.11
167.00	1264.67
168.00	1285.73
169.00	1329.42
170.00	1338.79
171.00	1302.90
172.00	1255.31
173.00	1253.75
174.00	1277.15
175.00	1288.85
176.00	1311.48
177.00	1354.39
178.00	1402.76
179.00	1431.63
180.00	1400.42
181.00	1401.20
182.00	1384.04
183.00	1399.64
184.00	1353.61
185.00	1330.20
186.00	1360.63
187.00	1407.44
188.00	1457.37
189.00	1463.62
190.00	1466.74
191.00	1437.87
192.00	1439.43
193.00	1431.63
194.00	1444.89
195.00	1435.53
196.00	1466.74
197.00	1490.92
198.00	1498.72
199.00	1502.62
200.00	1501.84
201.00	1536.17
202.00	1550.21
203.00	1581.42
204.00	1603.27
205.00	1600.93
206.00	1600.93
207.00	1558.80
208.00	1539.29
209.00	1534.61
210.00	1567.38
211.00	1617.31
212.00	1623.55
213.00	1614.19
214.00	1587.66
215.00	1593.90
216.00	1581.42
217.00	1586.10
218.00	1621.21
219.00	1680.50
220.00	1708.59
221.00	1692.21
222.00	1686.75
223.00	1706.25
224.00	1723.41
225.00	1728.88
226.00	1728.88
227.00	1753.06
228.00	1750.72
229.00	1745.26
230.00	1730.44
231.00	1732.00
232.00	1786.61
233.00	1799.09
234.00	1870.09
235.00	1847.46
236.00	1877.89
237.00	1833.42
238.00	1829.52
239.00	1838.10
240.00	1856.04
241.00	1924.70
242.00	1967.61
243.00	2004.28
244.00	1980.87
245.00	1967.61
246.00	1978.53
247.00	1976.97
248.00	1958.25
249.00	1968.39
250.00	1996.48
251.00	2026.90
252.00	2012.86
253.00	1998.82
254.00	2014.42
255.00	2050.31
256.00	2055.77
257.00	2092.44
258.00	2075.28
259.00	2114.28
260.00	2083.86
261.00	2095.56
262.00	2112.72
263.00	2156.41
264.00	2203.22
265.00	2246.91
266.00	2215.71
267.00	2193.86
268.00	2160.31
269.00	2211.81
270.00	2239.11
271.00	2218.83
272.00	2242.23
273.00	2262.52
274.00	2331.95
275.00	2334.29
276.00	2377.98
277.00	2381.89
278.00	2380.32
279.00	2391.25
280.00	2420.11
281.00	2397.49
282.00	2384.23
283.00	2383.45
284.00	2413.87
285.00	2420.89
286.00	2433.38
287.00	2460.68
288.00	2437.28
289.00	2452.88
290.00	2467.70
291.00	2486.43
292.00	2491.89
293.00	2526.22
294.00	2542.60
295.00	2553.52
296.00	2570.69
297.00	2612.04
298.00	2603.46
299.00	2569.13
300.00	2534.80
301.00	2541.04
302.00	2542.60
303.00	2628.42
304.00	2647.93
305.00	2690.06
306.00	2611.26
307.00	2623.74
308.00	2591.75
309.00	2657.29
310.00	2686.15
311.00	2715.02
312.00	2686.15
313.00	2613.60
314.00	2642.46
315.00	2664.31
316.00	2736.87
317.00	2685.37
318.00	2704.88
319.00	2691.62
320.00	2736.87
321.00	2768.07
322.00	2814.88
323.00	2782.12
324.00	2768.07
325.00	2795.38
326.00	2871.06
327.00	2899.92
328.00	2833.61
329.00	2881.98
330.00	2862.48
331.00	2910.85
332.00	2917.09
333.00	2936.59
334.00	2952.20
335.00	2947.51
336.00	2973.26
337.00	3018.51
338.00	3034.11
339.00	3076.24
340.00	3084.83
341.00	3080.15
342.00	3047.38
343.00	3029.43
344.00	3043.48
345.00	3100.43
346.00	3125.40
347.00	3171.43
348.00	3190.93
349.00	3209.65
350.00	3165.96
351.00	3129.30
352.00	3173.77
353.00	3212.00
354.00	3241.64
355.00	3226.04
356.00	3222.92
357.00	3250.22
358.00	3248.66
359.00	3332.14
360.00	3322.00
361.00	3342.28
362.00	3357.11
363.00	3397.68
364.00	3397.68
365.00	3368.81
366.00	3377.39
367.00	3426.54
368.00	3488.96
369.00	3517.83
370.00	3540.45
371.00	3503.78
372.00	3503.00
373.00	3455.41
374.00	3474.14
375.00	3460.09
376.00	3493.64
377.00	3524.07
378.00	3563.08
379.00	3633.29
380.00	3623.15
381.00	3669.96
382.00	3700.39
383.00	3785.43
384.00	3814.29
385.00	3833.80
386.00	3803.37
387.00	3802.59
388.00	3797.13
389.00	3822.09
390.00	3909.47
391.00	3945.36
392.00	3982.81
393.00	3950.82
394.00	3987.49
395.00	4046.01
396.00	4101.40
397.00	4100.62
398.00	4120.90
399.00	4144.31
400.00	4192.68
401.00	4161.47
402.00	4184.10
403.00	4290.20
404.00	4365.88
405.00	4371.34
406.00	4328.43
407.00	4234.03
408.00	4166.93
409.00	4145.09
410.00	4279.28
411.00	4358.86
412.00	4408.01
413.00	4392.41
414.00	4406.45
415.00	4372.90
416.00	4365.88
417.00	4360.42
418.00	4386.94
419.00	4408.01
420.00	4460.28
421.00	4523.48
422.00	4566.39
423.00	4574.19
424.00	4522.70
425.00	4483.69
426.00	4500.07
427.00	4514.11
428.00	4533.62
429.00	4537.52
430.00	4539.08
431.00	4492.27
432.00	4438.44
433.00	4444.68
434.00	4539.86
435.00	4656.11
436.00	4692.77
437.00	4688.09
438.00	4670.93
439.00	4699.02
440.00	4784.84
441.00	4807.46
442.00	4851.15
443.00	4825.40
444.00	4835.55
445.00	4837.89
446.00	4832.43
447.00	4869.09
448.00	4871.44
449.00	4855.05
450.00	4854.27
451.00	4840.23
452.00	4897.96
453.00	4892.50
454.00	4981.44
455.00	4983.00
456.00	5004.85
457.00	5003.29
458.00	5017.33
459.00	5013.43
460.00	4969.74
461.00	5030.59
462.00	5068.04
463.00	5164.00
464.00	5238.12
465.00	5327.06
466.00	5309.90
467.00	5289.61
468.00	5276.35
469.00	5356.71
470.00	5373.09
471.00	5401.96
472.00	5404.30
473.00	5441.75
474.00	5456.57
475.00	5482.31
476.00	5502.60
477.00	5590.76
478.00	5600.12
479.00	5654.73
480.00	5627.43
481.00	5617.29
482.00	5588.42
483.00	5579.06
484.00	5621.19
485.00	5667.22
486.00	5678.14
487.00	5648.49
488.00	5645.37
489.00	5669.56
490.00	5738.21
491.00	5751.48
492.00	5888.01
493.00	5944.96
494.00	6016.74
495.00	5969.93
496.00	5957.44
497.00	5973.83
498.00	6003.47
499.00	6051.06
500.00	6083.05
501.00	6128.30
502.00	6139.23
503.00	6081.49
504.00	6076.03
505.00	6063.55
506.00	6116.60
507.00	6108.80
508.00	6179.01
509.00	6267.95
510.00	6375.62
511.00	6387.32
512.00	6356.90
513.00	6324.13
514.00	6358.46
515.00	6435.69
516.00	6480.16
517.00	6586.27
518.00	6608.11
519.00	6565.20
520.00	6584.71
521.00	6559.74
522.00	6620.60
523.00	6575.34
524.00	6678.33
525.00	6739.96
526.00	6754.01
527.00	6672.87
528.00	6656.48
529.00	6683.79
530.00	6735.28
531.00	6764.15
532.00	6720.46
533.00	6746.20
534.00	6739.18
535.00	6817.20
536.00	6814.86
537.00	6798.48
538.00	6834.36
539.00	6866.35
540.00	6920.96
541.00	6898.34
542.00	6973.24
543.00	7041.11
544.00	7122.25
545.00	7156.58
546.00	7210.41
547.00	7258.00
548.00	7250.20
549.00	7314.17
550.00	7282.19
551.00	7348.50
552.00	7317.29
553.00	7420.28
554.00	7378.15
555.00	7421.84
556.00	7377.37
557.00	7443.68
558.00	7499.08
559.00	7586.46
560.00	7675.40
561.00	7687.88
562.00	7715.97
563.00	7673.06
564.00	7751.85
565.00	7826.75
566.00	8009.31
567.00	8010.09
568.00	8076.41
569.00	8010.87
570.00	8124.78
571.00	8204.36
572.00	8257.41
573.00	8217.62
574.00	8160.67
575.00	8198.90
576.00	8332.31
577.00	8388.48
578.00	8548.42
579.00	8518.77
580.00	8637.36
581.00	8551.54
582.00	8638.92
583.00	8681.05
584.00	8770.77
585.00	8832.40
586.00	8845.66
587.00	8836.30
588.00	8792.61
589.00	8846.44
590.00	8957.23
591.00	9078.16
592.00	9211.57
593.00	9329.38
594.00	9447.18
595.00	9483.07
596.00	9564.99
597.00	9680.46
598.00	9728.05
599.00	9805.28
600.00	9857.56
601.00	9901.25
602.00	9990.19
603.00	10025.29
604.00	10260.91
605.00	10407.58
606.00	10459.07
607.00	10470.00
608.00	10495.74
609.00	10596.39
610.00	10647.88
611.00	10668.16
612.00	10718.09
613.00	10801.57
614.00	10832.78
615.00	10879.59
616.00	10907.68
617.00	11102.72
618.00	11339.12
619.00	11433.52
620.00	11508.41
621.00	11488.91
622.00	11588.77
623.00	11710.48
624.00	11835.31
625.00	11980.42
626.00	11982.76
627.00	12053.76
628.00	12084.97
629.00	12257.39
630.00	12362.71
631.00	12404.06
632.00	12461.79
633.00	12651.38
634.00	12878.41
635.00	12979.83
636.00	13017.28
637.00	13113.24
638.00	13212.32
639.00	13299.70
640.00	13284.88
641.00	13329.35
642.00	13405.81
643.00	13490.85
644.00	13612.56
645.00	13694.47
646.00	13894.20
647.00	13916.05
648.00	14066.62
649.00	14172.72
650.00	14432.52
651.00	14443.45
652.00	14476.21
653.00	14455.93
654.00	14596.36
655.00	14754.74
656.00	14940.42
657.00	15083.97
658.00	15133.12
659.00	15179.93
660.00	15268.09
661.00	15425.69
662.00	15601.23
663.00	15753.37
664.00	15779.89
665.00	15797.06
666.00	15829.04
667.00	15915.64
668.00	16061.54
669.00	16336.16
670.00	16471.91
671.00	16471.91
672.00	16395.45
673.00	16439.92
674.00	16527.30
675.00	16645.11
676.00	16781.64
677.00	16994.63
678.00	17053.14
679.00	17250.53
680.00	17341.81
681.00	17477.56
682.00	17554.80
683.00	17630.48
684.00	17759.98
685.00	17862.97
686.00	18072.06
687.00	18208.59
688.00	18364.62
689.00	18409.09
690.00	18425.48
691.00	18458.24
692.00	18579.95
693.00	18733.65
694.00	18862.38
695.00	18978.62
696.00	19070.68
697.00	19131.54
698.00	19120.62
699.00	19158.85
700.00	19248.57
701.00	19304.74
702.00	19360.91
703.00	19536.45
704.00	19655.04
705.00	19929.66
706.00	19922.64
707.00	20159.81
708.00	20218.33
709.00	20410.25
710.00	20416.49
711.00	20553.02
712.00	20613.88
713.00	20737.93
714.00	20762.89
715.00	20858.85
716.00	20934.53
717.00	21141.28
718.00	21163.90
719.00	21323.84
720.00	21319.16
721.00	21424.48
722.00	21461.15
723.00	21509.52
724.00	21615.63
725.00	21566.48
726.00	21707.69
727.00	21838.76
728.00	22097.78
729.00	22160.97
730.00	22261.62
731.00	22264.74
732.00	22359.14
733.00	22215.58
734.00	22224.95
735.00	22182.82
736.00	22469.92
737.00	22590.85
738.00	22710.22
739.00	22739.86
740.00	22853.77
741.00	22984.84
742.00	23014.49
743.00	23033.21
744.00	23041.79
745.00	23287.55
746.00	23400.68
747.00	23572.32
748.00	23552.03
749.00	23683.10
750.00	23763.46
751.00	23859.42
752.00	23963.96
753.00	23970.21
754.00	23903.89
755.00	23902.33
756.00	24051.34
757.00	24181.63
758.00	24268.23
759.00	24352.49
760.00	24512.43
761.00	24599.81
762.00	24630.24
763.00	24759.75
764.00	24954.79
765.00	25088.98
766.00	25104.59
767.00	25207.57
768.00	25256.72
769.00	25429.14
770.00	25506.38
771.00	25575.03
772.00	25751.35
773.00	25873.84
774.00	26014.27
775.00	25912.85
776.00	25951.08
777.00	25947.18
778.00	26041.58
779.00	25958.10
780.00	25952.64
781.00	26100.87
782.00	26361.45
783.00	26671.96
784.00	26757.78
785.00	26735.16
786.00	26727.36
787.00	26890.41
788.00	27003.54
789.00	27051.13
790.00	27005.88
791.00	26988.72
792.00	27102.62
793.00	27167.38
794.00	27353.84
795.00	27373.35
796.00	27587.89
797.00	27695.56
798.00	27892.94
799.00	27961.60
800.00	28006.85
801.00	28078.63
802.00	28168.35
803.00	28261.97
804.00	28439.85
805.00	28466.38
806.00	28539.71
807.00	28454.67
808.00	28606.03
809.00	28839.30
810.00	28977.39
811.00	28954.77
812.00	29109.24
813.00	29266.84
814.00	29498.55
815.00	29590.61
816.00	29787.22
817.00	29908.15
818.00	29790.34
819.00	29717.00
820.00	29664.73
821.00	29920.63
822.00	30027.51
823.00	30032.19
824.00	29885.52
825.00	29888.64
826.00	29869.92
827.00	30063.40
828.00	30121.91
829.00	30215.54
830.00	30363.77
831.00	30534.63
832.00	30854.50
833.00	30838.12
834.00	30948.12
835.00	31009.76
836.00	31078.41
837.00	31132.25
838.00	31254.73
839.00	31294.52
840.00	31381.12
841.00	31243.81
842.00	31363.18
843.00	31482.55
844.00	31685.39
845.00	31844.55
846.00	32008.39
847.00	32061.44
848.00	32138.68
849.00	32144.92
850.00	32205.77
851.00	32172.22
852.00	32020.87
853.00	32078.60
854.00	32077.04
855.00	32286.91
856.00	32366.49
857.00	32454.65
858.00	32581.04
859.00	32549.83
860.00	32655.93
861.00	32694.94
862.00	32800.27
863.00	33019.50
864.00	33035.10
865.00	33304.26
866.00	33342.49
867.00	33542.22
868.00	33549.24
869.00	33727.90
870.00	33892.52
871.00	34127.35
872.00	34068.84
873.00	34061.82
874.00	33939.33
875.00	33865.21
876.00	33849.61
877.00	33995.50
878.00	34218.63
879.00	34292.75
880.00	34223.31
881.00	34111.75
882.00	34082.88
883.00	34093.02
884.00	34114.87
885.00	34069.62
886.00	34017.35
887.00	34210.05
888.00	34426.16
889.00	34660.99
890.00	34724.19
891.00	34763.98
892.00	34905.97
893.00	34648.51
894.00	34812.35
895.00	34905.97
896.00	35365.49
897.00	35278.89
898.00	35342.09
899.00	35410.74
900.00	35776.65
901.00	35970.91
902.00	36126.95
903.00	36137.09
904.00	36241.64
905.00	36488.95
906.00	36485.05
907.00	36343.84
908.00	35893.68
909.00	36214.33
910.00	36295.47
911.00	36381.29
912.00	36009.92
913.00	35962.33
914.00	36059.07
915.00	36109.78
916.00	36217.45
917.00	36322.77
918.00	36526.40
919.00	36466.33
920.00	36559.95
921.00	36619.24
922.00	36823.65
923.00	36857.98
924.00	36854.86
925.00	36974.22
926.00	37006.21
927.00	36938.33
928.00	36937.55
929.00	37269.91
930.00	37411.90
931.00	37561.70
932.00	37609.29
933.00	37787.17
934.00	37599.93
935.00	37371.33
936.00	37417.36
937.00	37692.77
938.00	37625.67
939.00	37586.66
940.00	37522.69
941.00	37736.46
942.00	37833.98
943.00	37874.55
944.00	38063.35
945.00	38015.76
946.00	38123.43
947.00	38091.44
948.00	38305.21
949.00	38268.54
950.00	38408.19
951.00	38349.68
952.00	38225.63
953.00	38099.24
954.00	37985.33
955.00	38178.04
956.00	38369.18
957.00	38827.93
958.00	39148.58
959.00	39282.77
960.00	39288.23
961.00	39054.18
962.00	38986.30
963.00	39085.39
964.00	39509.80
965.00	39647.89
966.00	39755.56
967.00	39895.99
968.00	39926.42
969.00	39927.20
970.00	40017.70
971.00	40258.77
972.00	40372.68
973.00	40035.64
974.00	39895.21
975.00	39929.54
976.00	39945.92
977.00	40077.77
978.00	39796.13
979.00	39806.27
980.00	39659.60
981.00	40131.61
982.00	40282.96
983.00	40466.30
984.00	40396.09
985.00	40652.76
986.00	40756.53
987.00	40676.95
988.00	40616.10
989.00	40470.20
990.00	40596.59
991.00	40582.55
992.00	40911.00
993.00	40840.79
994.00	41170.02
995.00	41184.07
996.00	41326.06
997.00	41505.50
998.00	41771.54
999.00	41979.85
1000.00	41918.21
1001.00	41901.05
1002.00	41884.67
1003.00	41803.53
1004.00	41950.98
1005.00	42011.06
1006.00	42128.08
1007.00	42109.36
1008.00	42311.42
1009.00	42222.48
1010.00	42331.71
1011.00	42250.57
1012.00	42341.85
1013.00	42217.02
1014.00	42234.19
1015.00	42330.93
1016.00	42464.34
1017.00	42722.58
1018.00	42993.30
1019.00	43150.90
1020.00	43118.13
1021.00	43005.00
1022.00	42872.37
1023.00	42677.33
1024.00	42699.17
1025.00	42838.83
1026.00	43132.17
1027.00	43345.94
1028.00	43526.16
1029.00	43533.18
1030.00	43512.90
1031.00	43674.40
1032.00	44002.07
1033.00	44285.28
1034.00	44207.26
1035.00	44033.28
1036.00	43823.41
1037.00	43859.30
1038.00	43974.77
1039.00	44034.06
1040.00	44137.04
1041.00	44126.90
1042.00	44255.63
1043.00	44334.43
1044.00	44493.58
1045.00	44428.05
1046.00	44310.24
1047.00	44127.68
1048.00	44359.39
1049.00	44414.79
1050.00	44813.46
1051.00	44928.14
1052.00	45141.13
1053.00	45028.79
1054.00	44815.80
1055.00	44777.57
1056.00	44880.55
1057.00	45143.47
1058.00	45289.37
1059.00	45287.03
1060.00	45447.74
1061.00	45361.92
1062.00	45390.79
1063.00	45255.82
1064.00	45301.07
1065.00	45287.81
1066.00	45450.86
1067.00	45706.76
1068.00	45769.18
1069.00	45642.01
1070.00	45523.42
1071.00	45657.61
1072.00	45762.15
1073.00	45788.68
1074.00	46004.01
1075.00	46138.98
1076.00	46230.26
1077.00	46028.98
1078.00	46056.28
1079.00	45998.55
1080.00	46041.46
1081.00	46038.34
1082.00	46044.58
1083.00	46031.32
1084.00	45865.14
1085.00	45884.64
1086.00	46035.22
1087.00	46259.13
1088.00	46491.62
1089.00	46684.33
1090.00	46820.08
1091.00	46893.41
1092.00	46903.56
1093.00	46922.28
1094.00	47015.12
1095.00	47001.86
1096.00	47100.16
1097.00	47140.73
1098.00	47037.75
1099.00	46933.20
1100.00	46904.34
1101.00	47074.41
1102.00	47130.59
1103.00	47253.08
1104.00	47171.94
1105.00	47156.33
1106.00	47008.88
1107.00	47064.27
1108.00	47218.75
1109.00	47405.99
1110.00	47640.82
1111.00	47492.59
1112.00	47423.93
1113.00	47278.04
1114.00	47292.08
1115.00	47282.72
1116.00	47299.89
1117.00	47447.34
1118.00	47420.03
1119.00	47551.10
1120.00	47538.62
1121.00	47620.54
1122.00	47711.04
1123.00	47630.68
1124.00	47593.23
1125.00	47295.99
1126.00	47494.93
1127.00	47498.83
1128.00	47607.28
1129.00	47466.06
1130.00	47601.04
1131.00	47700.12
1132.00	47904.52
1133.00	47911.55
1134.00	47920.13
1135.00	47854.59
1136.00	47945.09
1137.00	48098.01
1138.00	48159.64
1139.00	48125.32
1140.00	48074.60
1141.00	48026.23
1142.00	48126.88
1143.00	48108.15
1144.00	48155.74
1145.00	48038.72
1146.00	48043.40
1147.00	48083.97
1148.00	48148.72
1149.00	48236.10
1150.00	48307.88
1151.00	48408.52
1152.00	48555.19
1153.00	48714.35
1154.00	48574.70
1155.00	48355.47
1156.00	48120.63
1157.00	48063.68
1158.00	48134.68
1159.00	48289.93
1160.00	48563.00
1161.00	48772.86
1162.00	48964.79
1163.00	49062.31
1164.00	48923.44
1165.00	48921.10
1166.00	48834.50
1167.00	48920.32
1168.00	48819.67
1169.00	48711.23
1170.00	48682.36
1171.00	48683.92
1172.00	48619.95
1173.00	48564.56
1174.00	48499.02
1175.00	48730.73
1176.00	48775.98
1177.00	48647.25
1178.00	48268.09
1179.00	48249.36
1180.00	48327.38
1181.00	48727.61
1182.00	48879.75
1183.00	49104.44
1184.00	49071.67
1185.00	49108.34
1186.00	49143.45
1187.00	49315.09
1188.00	49290.90
1189.00	49175.44
1190.00	49142.67
1191.00	49314.31
1192.00	49109.90
1193.00	48862.58
1194.00	48699.53
1195.00	49017.84
1196.00	49314.31
1197.00	49230.83
1198.00	49276.86
1199.00	49230.83
1200.00	49245.65
1201.00	49158.27
1202.00	49098.98
1203.00	49260.48
1204.00	49337.71
1205.00	49514.81
1206.00	49554.60
1207.00	49630.28
1208.00	49596.73
1209.00	49478.92
1210.00	49296.36
1211.00	49126.28
1212.00	49104.44
1213.00	49170.75
1214.00	49173.10
1215.00	49063.09
1216.00	49126.28
1217.00	49127.06
1218.00	49152.03
1219.00	49065.43
1220.00	49087.28
1221.00	49148.91
1222.00	49179.34
1223.00	49313.53
1224.00	49303.38
1225.00	49318.21
1226.00	49376.72
1227.00	49565.52
1228.00	49477.36
1229.00	49272.18
1230.00	49280.76
1231.00	49527.30
1232.00	49702.84
1233.00	49757.45
1234.00	49643.54
1235.00	49663.05
1236.00	49638.08
1237.00	49748.87
1238.00	49837.81
1239.00	50067.18
1240.00	50180.31
1241.00	50313.72
1242.00	50241.94
1243.00	50223.22
1244.00	50213.85
1245.00	50253.64
1246.00	50280.95
1247.00	50382.37
1248.00	50514.22
1249.00	50591.46
1250.00	50461.17
1251.00	50275.49
1252.00	50156.90
1253.00	50160.02
1254.00	50154.56
1255.00	50057.04
1256.00	49950.15
1257.00	50022.71
1258.00	50205.27
1259.00	50182.65
1260.00	50086.68
1261.00	50194.35
1262.00	50482.23
1263.00	50865.30
1264.00	51036.94
1265.00	51070.49
1266.00	50994.81
1267.00	51077.51
1268.00	51211.70
1269.00	51262.41
1270.00	50994.03
1271.00	50770.12
1272.00	50858.28
1273.00	50915.23
1274.00	51001.83
1275.00	50708.49
1276.00	50599.26
1277.00	50440.10
1278.00	50560.25
1279.00	50836.44
1280.00	50998.71
1281.00	51120.42
1282.00	51082.97
1283.00	51144.61
1284.00	51091.55
1285.00	51242.13
1286.00	51277.24
1287.00	51264.75
1288.00	51091.55
1289.00	51171.91
1290.00	51324.05
1291.00	51406.75
1292.00	51464.48
1293.00	51515.19
1294.00	51474.62
1295.00	51438.73
1296.00	51384.90
1297.00	51358.38
1298.00	51318.59
1299.00	51123.54
1300.00	51059.57
1301.00	51000.27
1302.00	51052.55
1303.00	51246.03
1304.00	51388.80
1305.00	51533.14
1306.00	51565.90
1307.00	51501.93
1308.00	51534.70
1309.00	51381.00
1310.00	51486.32
1311.00	51452.78
1312.00	51718.04
1313.00	51685.27
1314.00	51817.12
1315.00	51909.18
1316.00	52129.19
1317.00	52140.89
1318.00	51917.76
1319.00	51827.26
1320.00	51870.17
1321.00	52041.81
1322.00	52053.51
1323.00	52135.43
1324.00	52173.66
1325.00	52162.74
1326.00	52154.16
1327.00	52280.55
1328.00	52438.14
1329.00	52668.30
1330.00	52785.32
1331.00	52780.64
1332.00	52514.60
1333.00	52283.67
1334.00	52136.99
1335.00	51998.90
1336.00	51966.13
1337.00	51976.28
1338.00	51985.64
1339.00	51938.83
1340.00	51906.06
1341.00	51943.51
1342.00	52054.29
1343.00	52158.06
1344.00	52169.76
1345.00	52140.89
1346.00	52115.15
1347.00	52300.83
1348.00	52358.56
1349.00	52454.53
1350.00	52295.37
1351.00	52276.65
1352.00	52010.60
1353.00	52118.27
1354.00	52098.76
1355.00	52361.68
1356.00	52338.28
1357.00	52446.72
1358.00	52373.39
1359.00	52410.06
1360.00	52428.78
1361.00	52554.39
1362.00	52535.66
1363.00	52429.56
1364.00	52373.39
1365.00	52429.56
1366.00	52380.41
1367.00	52374.95
1368.00	52431.90
1369.00	52637.09
1370.00	52590.28
1371.00	52533.32
1372.00	52478.71
1373.00	52562.19
1374.00	52616.02
1375.00	52641.77
1376.00	52789.22
1377.00	52711.20
1378.00	52655.03
1379.00	52548.15
1380.00	52656.59
1381.00	52723.69
1382.00	52667.51
1383.00	52552.83
1384.00	52316.43
1385.00	52072.24
1386.00	51768.75
1387.00	51674.35
1388.00	51752.37
1389.00	51856.91
1390.00	52005.92
1391.00	52054.29
1392.00	52207.21
1393.00	52295.37
1394.00	52292.25
1395.00	52367.15
1396.00	52361.68
1397.00	52515.38
1398.00	52406.94
1399.00	52327.36
1400.00	52176.78
1401.00	52075.36
1402.00	52192.39
1403.00	52218.91
1404.00	52281.33
1405.00	52180.68
1406.00	52289.13
1407.00	52369.49
1408.00	52431.12
1409.00	52413.18
1410.00	52511.48
1411.00	52551.27
1412.00	52589.50
1413.00	52669.86
1414.00	52754.11
1415.00	52775.96
1416.00	52687.80
1417.00	52584.04
1418.00	52523.18
1419.00	52516.16
1420.00	52579.35
1421.00	52644.89
1422.00	52719.79
1423.00	52543.47
1424.00	52597.30
1425.00	52557.51
1426.00	52683.90
1427.00	52663.61
1428.00	52663.61
1429.00	52554.39
1430.00	52439.70
1431.00	52268.06
1432.00	52366.37
1433.00	52181.46
1434.00	52137.77
1435.00	51990.32
1436.00	51919.32
1437.00	51905.28
1438.00	51840.53
1439.00	51973.94
1440.00	51995.78
1441.00	51909.96
1442.00	51947.41
1443.00	51777.33
1444.00	51978.62
1445.00	51957.55
1446.00	52219.69
1447.00	52341.40
1448.00	52365.59
1449.00	52373.39
1450.00	52349.20
1451.00	52490.41
1452.00	52589.50
1453.00	52525.52
1454.00	52392.11
1455.00	52235.30
1456.00	52158.84
1457.00	52156.50
1458.00	52180.68
1459.00	52028.55
1460.00	51963.79
1461.00	51907.62
1462.00	51963.01
1463.00	52039.47
1464.00	52049.61
1465.00	52103.45
1466.00	51941.17
1467.00	51879.53
1468.00	51843.65
1469.00	51970.82
1470.00	51945.07
1471.00	51952.87
1472.00	51944.29
1473.00	51960.67
1474.00	52059.76
1475.00	51963.01
1476.00	52027.77
1477.00	52022.31
1478.00	52104.23
1479.00	52133.87
1480.00	51985.64
1481.00	51826.48
1482.00	51711.02
1483.00	51659.52
1484.00	51695.41
1485.00	51656.40
1486.00	51584.63
1487.00	51484.76
1488.00	51420.01
1489.00	51508.17
1490.00	51512.07
1491.00	51544.06
1492.00	51465.26
1493.00	51472.28
1494.00	51544.06
1495.00	51778.11
1496.00	51751.59
1497.00	51754.71
1498.00	51562.78
1499.00	51636.12
1500.00	51590.09
1501.00	51739.88
1502.00	51890.46
1503.00	51847.55
1504.00	51616.61
1505.00	51490.23
1506.00	51475.40
1507.00	51572.14
1508.00	51505.83
1509.00	51533.14
1510.00	51512.85
1511.00	51571.36
1512.00	51593.99
1513.00	51727.40
1514.00	51664.99
1515.00	51653.28
1516.00	51399.72
1517.00	51324.05
1518.00	51182.84
1519.00	51372.42
1520.00	51511.29
1521.00	51601.01
1522.00	51427.03
1523.00	51402.85
1524.00	51358.38
1525.00	51362.28
1526.00	51220.28
1527.00	51127.44
1528.00	51270.22
1529.00	51178.15
1530.00	51214.04
1531.00	51063.47
1532.00	51270.22
1533.00	51319.37
1534.00	51355.25
1535.00	51362.28
1536.00	51520.65
1537.00	51673.57
1538.00	51657.18
1539.00	51583.85
1540.00	51518.31
1541.00	51494.13
1542.00	51461.36
1543.00	51532.36
1544.00	51658.74
1545.00	51711.80
1546.00	51653.28
1547.00	51407.53
1548.00	51288.16
1549.00	51052.55
1550.00	51085.31
1551.00	51124.32
1552.00	51165.67
1553.00	51134.46
1554.00	51090.77
1555.00	51096.24
1556.00	51207.02
1557.00	51160.21
1558.00	51319.37
1559.00	51149.29
1560.00	50959.70
1561.00	50681.96
1562.00	50640.61
1563.00	50673.38
1564.00	50568.05
1565.00	50545.43
1566.00	50475.99
1567.00	50423.72
1568.00	50284.07
1569.00	50191.23
1570.00	50241.16
1571.00	50273.93
1572.00	50290.31
1573.00	50351.16
1574.00	50396.42
1575.00	50498.62
1576.00	50364.43
1577.00	50294.21
1578.00	50253.64
1579.00	50401.10
1580.00	50383.15
1581.00	50350.38
1582.00	50479.11
1583.00	50697.56
1584.00	50869.20
1585.00	50901.19
1586.00	50800.55
1587.00	50675.72
1588.00	50549.33
1589.00	50567.27
1590.00	50475.21
1591.00	50299.67
1592.00	50161.58
1593.00	50185.77
1594.00	50209.95
1595.00	49998.52
1596.00	50101.51
1597.00	49892.42
1598.00	50039.87
1599.00	50023.49
1600.00	50244.28
1601.00	50398.76
1602.00	50316.84
1603.00	50202.15
1604.00	50103.85
1605.00	50093.71
1606.00	50092.93
1607.00	49858.09
1608.00	49677.87
1609.00	49744.19
1610.00	49879.16
1611.00	49942.35
1612.00	49907.24
1613.00	49888.52
1614.00	49942.35
1615.00	50057.04
1616.00	50156.12
1617.00	50365.21
1618.00	50490.82
1619.00	50625.79
1620.00	50605.50
1621.00	50408.12
1622.00	50250.52
1623.00	50191.23
1624.00	50255.20
1625.00	50265.34
1626.00	50102.29
1627.00	49841.71
1628.00	49677.09
1629.00	49748.09
1630.00	49918.17
1631.00	49986.82
1632.00	50132.71
1633.00	50168.60
1634.00	50347.26
1635.00	50231.80
1636.00	50155.34
1637.00	49975.12
1638.00	49764.47
1639.00	49773.05
1640.00	49686.45
1641.00	49712.20
1642.00	49535.88
1643.00	49512.47
1644.00	49364.24
1645.00	49368.14
1646.00	49391.55
1647.00	49556.94
1648.00	49662.27
1649.00	49645.10
1650.00	49562.40
1651.00	49333.03
1652.00	49403.25
1653.00	49367.36
1654.00	49419.63
1655.00	49301.82
1656.00	49227.71
1657.00	49199.62
1658.00	49069.33
1659.00	49059.97
1660.00	49029.54
1661.00	49045.93
1662.00	49060.75
1663.00	49131.75
1664.00	49281.54
1665.00	49377.50
1666.00	49460.20
1667.00	49420.41
1668.00	49462.54
1669.00	49323.67
1670.00	49134.87
1671.00	49104.44
1672.00	49145.79
1673.00	49343.95
1674.00	49289.34
1675.00	49326.79
1676.00	49309.63
1677.00	49172.31
1678.00	49131.75
1679.00	49036.56
1680.00	48955.43
1681.00	48761.94
1682.00	48641.79
1683.00	48548.95
1684.00	48484.98
1685.00	48617.61
1686.00	48801.73
1687.00	48976.49
1688.00	48791.59
1689.00	48747.90
1690.00	48577.82
1691.00	48668.32
1692.00	48499.80
1693.00	48342.20
1694.00	48002.05
1695.00	47886.58
1696.00	47948.21
1697.00	48124.53
1698.00	48253.26
1699.00	48395.26
1700.00	48548.95
1701.00	48765.06
1702.00	48836.06
1703.00	48828.26
1704.00	48498.24
1705.00	48426.46
1706.00	48346.89
1707.00	48487.32
1708.00	48364.05
1709.00	48307.88
1710.00	48134.68
1711.00	47890.48
1712.00	47639.26
1713.00	47532.38
1714.00	47576.85
1715.00	47675.15
1716.00	47840.55
1717.00	47930.27
1718.00	47928.71
1719.00	47796.08
1720.00	47745.37
1721.00	47495.71
1722.00	47360.74
1723.00	47214.07
1724.00	47357.62
1725.00	47416.13
1726.00	47406.77
1727.00	47358.40
1728.00	47240.59
1729.00	47107.18
1730.00	46937.88
1731.00	46826.32
1732.00	46665.60
1733.00	46347.29
1734.00	46277.85
1735.00	46348.07
1736.00	46600.85
1737.00	46531.41
1738.00	46471.34
1739.00	46278.63
1740.00	46155.36
1741.00	45959.54
1742.00	45795.70
1743.00	45717.68
1744.00	45581.15
1745.00	45518.74
1746.00	45410.29
1747.00	45284.68
1748.00	45264.40
1749.00	45237.09
1750.00	45226.95
1751.00	45198.09
1752.00	45001.48
1753.00	44919.56
1754.00	44582.52
1755.00	44507.63
1756.00	44463.94
1757.00	44634.80
1758.00	44539.61
1759.00	44370.32
1760.00	44208.04
1761.00	44209.60
1762.00	44137.82
1763.00	43958.38
1764.00	43917.81
1765.00	43900.65
1766.00	43777.38
1767.00	43528.50
1768.00	43530.06
1769.00	43506.66
1770.00	43651.77
1771.00	43691.56
1772.00	43755.53
1773.00	43695.46
1774.00	43426.30
1775.00	43310.05
1776.00	43277.29
1777.00	43215.65
1778.00	43221.11
1779.00	43115.79
1780.00	43193.03
1781.00	43107.21
1782.00	42941.81
1783.00	42724.92
1784.00	42510.37
1785.00	42543.92
1786.00	42409.73
1787.00	42314.55
1788.00	41889.35
1789.00	41768.42
1790.00	41585.08
1791.00	41462.59
1792.00	41235.56
1793.00	41027.25
1794.00	40932.07
1795.00	40854.05
1796.00	40845.47
1797.00	40698.80
1798.00	40499.85
1799.00	40342.25
1800.00	40171.39
1801.00	40145.65
1802.00	39983.37
1803.00	39829.68
1804.00	39568.32
1805.00	39297.59
1806.00	39066.66
1807.00	39032.33
1808.00	39111.91
1809.00	39256.25
1810.00	39025.31
1811.00	38914.53
1812.00	38693.74
1813.00	38654.73
1814.00	38390.25
1815.00	38268.54
1816.00	38210.81
1817.00	38188.18
1818.00	37960.37
1819.00	37753.62
1820.00	37579.64
1821.00	37597.59
1822.00	37401.76
1823.00	37109.97
1824.00	36850.17
1825.00	36770.60
1826.00	36680.10
1827.00	36795.56
1828.00	36566.19
1829.00	36660.59
1830.00	35991.20
1831.00	36002.90
1832.00	35833.60
1833.00	35909.28
1834.00	35662.74
1835.00	35370.18
1836.00	35019.88
1837.00	34774.12
1838.00	34598.58
1839.00	34569.71
1840.00	34277.15
1841.00	33940.11
1842.00	33687.33
1843.00	33450.16
1844.00	33344.83
1845.00	33237.95
1846.00	33112.34
1847.00	32816.65
1848.00	32494.44
1849.00	32243.22
1850.00	32131.65
1851.00	31887.46
1852.00	31697.88
1853.00	31541.84
1854.00	31680.71
1855.00	31638.58
1856.00	31549.64
1857.00	31336.65
1858.00	31359.28
1859.00	31156.43
1860.00	30956.71
1861.00	30710.95
1862.00	30548.67
1863.00	30453.49
1864.00	30332.56
1865.00	30228.02
1866.00	30087.59
1867.00	29911.27
1868.00	29720.90
1869.00	29445.50
1870.00	29120.95
1871.00	28936.82
1872.00	28705.89
1873.00	28520.21
1874.00	28232.32
1875.00	28066.92
1876.00	27965.50
1877.00	27686.98
1878.00	27405.33
1879.00	27101.06
1880.00	27004.32
1881.00	26998.08
1882.00	26856.09
1883.00	26725.02
1884.00	26534.65
1885.00	26342.73
1886.00	26133.64
1887.00	25864.48
1888.00	25710.78
1889.00	25637.45
1890.00	25553.19
1891.00	25438.50
1892.00	25128.77
1893.00	24937.63
1894.00	24831.52
1895.00	24754.29
1896.00	24604.49
1897.00	24368.88
1898.00	24203.48
1899.00	24091.13
1900.00	24128.58
1901.00	24166.03
1902.00	24074.75
1903.00	23907.01
1904.00	23726.79
1905.00	23631.61
1906.00	23334.36
1907.00	23062.08
1908.00	22859.23
1909.00	22808.52
1910.00	22628.30
1911.00	22302.96
1912.00	22080.61
1913.00	22072.81
1914.00	21901.17
1915.00	21678.82
1916.00	21328.52
1917.00	21337.88
1918.00	21239.58
1919.00	21252.06
1920.00	21026.59
1921.00	20844.81
1922.00	20757.43
1923.00	20613.88
1924.00	20452.38
1925.00	20217.55
1926.00	20082.58
1927.00	19960.09
1928.00	19755.68
1929.00	19711.21
1930.00	19711.99
1931.00	19641.78
1932.00	19390.56
1933.00	19279.77
1934.00	19115.16
1935.00	19059.76
1936.00	18843.65
1937.00	18680.60
1938.00	18529.24
1939.00	18484.77
1940.00	18384.91
1941.00	18324.05
1942.00	18061.13
1943.00	17912.12
1944.00	17710.83
1945.00	17652.32
1946.00	17622.67
1947.00	17518.13
1948.00	17394.08
1949.00	17214.64
1950.00	17062.51
1951.00	16936.90
1952.00	16824.55
1953.00	16842.50
1954.00	16800.37
1955.00	16670.08
1956.00	16496.10
1957.00	16315.09
1958.00	16278.43
1959.00	16096.64
1960.00	15948.41
1961.00	15780.67
1962.00	15694.07
1963.00	15548.96
1964.00	15417.89
1965.00	15307.88
1966.00	15219.72
1967.00	15155.75
1968.00	15066.03
1969.00	14977.09
1970.00	14909.99
1971.00	14835.10
1972.00	14775.80
1973.00	14721.19
1974.00	14634.59
1975.00	14516.00
1976.00	14317.84
1977.00	14156.34
1978.00	14023.71
1979.00	13848.17
1980.00	13769.37
1981.00	13694.47
1982.00	13670.29
1983.00	13632.84
1984.00	13586.03
1985.00	13525.96
1986.00	13471.34
1987.00	13442.48
1988.00	13401.91
1989.00	13275.52
1990.00	13099.98
1991.00	12897.13
1992.00	12800.39
1993.00	12652.16
1994.00	12686.48
1995.00	12603.00
1996.00	12534.35
1997.00	12354.91
1998.00	12270.65
1999.00	12170.79
2000.00	12121.63
2001.00	12088.87
2002.00	12124.76
2003.00	12028.79
2004.00	11904.74
2005.00	11701.12
2006.00	11663.67
2007.00	11559.13
2008.00	11534.16
2009.00	11455.36
2010.00	11332.09
2011.00	11352.38
2012.00	11321.17
2013.00	11362.52
2014.00	11165.92
2015.00	11148.75
2016.00	11052.79
2017.00	11099.60
2018.00	10910.02
2019.00	10903.78
2020.00	10867.11
2021.00	10898.31
2022.00	10742.28
2023.00	10679.08
2024.00	10675.96
2025.00	10677.52
2026.00	10565.18
2027.00	10381.84
2028.00	10347.51
2029.00	10364.67
2030.00	10360.77
2031.00	10277.29
2032.00	10175.09
2033.00	10124.38
2034.00	10010.47
2035.00	9909.83
2036.00	9775.64
2037.00	9762.37
2038.00	9756.91
2039.00	9635.99
2040.00	9586.83
2041.00	9491.65
2042.00	9509.60
2043.00	9442.50
2044.00	9387.11
2045.00	9442.50
2046.00	9380.09
2047.00	9238.09
>>>>>End Processed Spectral Data<<<<<
