SpectraSuite Data File
++++++++++++++++++++++++++++++++++++
Date: Thu Nov 16 14:03:58 EST 2017
User: cheriyan
Dark Spectrum Present: No
Reference Spectrum Present: No
Number of Sampled Component Spectra: 1
Spectrometers: USB2+H05261
Integration Time (usec): 100000 (USB2+H05261)
Spectra Averaged: 1 (USB2+H05261)
Boxcar Smoothing: 1 (USB2+H05261)
Correct for Electrical Dark: No (USB2+H05261)
Strobe/Lamp Enabled: No (USB2+H05261)
Correct for Detector Non-linearity: No (USB2+H05261)
Correct for Stray Light: No (USB2+H05261)
Number of Pixels in Processed Spectrum: 2048
>>>>>Begin Processed Spectral Data<<<<<
0.00	355.76
1.00	355.76
2.00	369.80
3.00	334.70
4.00	297.25
5.00	237.95
6.00	238.73
7.00	249.66
8.00	269.16
9.00	284.77
10.00	272.28
11.00	252.78
12.00	226.25
13.00	229.37
14.00	238.73
15.00	239.51
16.00	259.02
17.00	276.96
18.00	274.62
19.00	255.12
20.00	259.80
21.00	299.59
22.00	324.55
23.00	386.97
24.00	530.52
25.00	695.92
26.00	797.34
27.00	822.31
28.00	837.13
29.00	854.30
30.00	853.52
31.00	837.13
32.00	850.39
33.00	874.58
34.00	896.43
35.00	908.91
36.00	936.99
37.00	933.87
38.00	929.97
39.00	905.01
40.00	913.59
41.00	893.30
42.00	905.79
43.00	908.91
44.00	942.46
45.00	931.53
46.00	936.21
47.00	956.50
48.00	990.05
49.00	1031.40
50.00	1053.24
51.00	1067.28
52.00	1050.12
53.00	1023.59
54.00	994.73
55.00	997.85
56.00	1010.33
57.00	1006.43
58.00	1000.19
59.00	994.73
60.00	1035.30
61.00	1052.46
62.00	1044.66
63.00	1042.32
64.00	1032.96
65.00	1070.40
66.00	1054.80
67.00	1094.59
68.00	1071.19
69.00	1076.65
70.00	1093.03
71.00	1103.95
72.00	1107.07
73.00	1069.62
74.00	1036.08
75.00	1050.90
76.00	1061.04
77.00	1101.61
78.00	1121.12
79.00	1114.88
80.00	1129.70
81.00	1091.47
82.00	1100.83
83.00	1087.57
84.00	1125.80
85.00	1135.16
86.00	1161.69
87.00	1178.07
88.00	1196.79
89.00	1196.01
90.00	1199.91
91.00	1192.11
92.00	1209.28
93.00	1217.08
94.00	1241.26
95.00	1213.96
96.00	1200.69
97.00	1185.09
98.00	1207.72
99.00	1203.82
100.00	1216.30
101.00	1254.53
102.00	1263.11
103.00	1299.00
104.00	1266.23
105.00	1291.20
106.00	1269.35
107.00	1294.32
108.00	1316.16
109.00	1338.01
110.00	1333.33
111.00	1331.76
112.00	1336.45
113.00	1381.70
114.00	1370.77
115.00	1348.93
116.00	1324.74
117.00	1345.81
118.00	1393.40
119.00	1392.62
120.00	1403.54
121.00	1391.06
122.00	1416.80
123.00	1411.34
124.00	1447.23
125.00	1475.32
126.00	1499.50
127.00	1491.70
128.00	1483.12
129.00	1490.14
130.00	1512.77
131.00	1529.93
132.00	1555.68
133.00	1558.02
134.00	1546.31
135.00	1532.27
136.00	1541.63
137.00	1560.36
138.00	1545.53
139.00	1536.17
140.00	1543.97
141.00	1606.39
142.00	1639.94
143.00	1641.50
144.00	1630.57
145.00	1604.05
146.00	1614.97
147.00	1588.44
148.00	1634.47
149.00	1656.32
150.00	1700.79
151.00	1711.71
152.00	1753.06
153.00	1774.91
154.00	1808.45
155.00	1803.77
156.00	1781.15
157.00	1737.46
158.00	1723.41
159.00	1746.04
160.00	1775.69
161.00	1779.59
162.00	1818.60
163.00	1831.86
164.00	1862.29
165.00	1827.96
166.00	1832.64
167.00	1851.36
168.00	1898.95
169.00	1900.52
170.00	1875.55
171.00	1881.01
172.00	1926.26
173.00	1969.95
174.00	1980.87
175.00	2006.62
176.00	2007.40
177.00	2028.46
178.00	2008.18
179.00	2001.16
180.00	2007.40
181.00	2004.28
182.00	2038.61
183.00	2005.84
184.00	2011.30
185.00	2015.98
186.00	2062.79
187.00	2114.28
188.00	2116.62
189.00	2147.83
190.00	2162.66
191.00	2186.84
192.00	2189.96
193.00	2155.63
194.00	2133.79
195.00	2115.84
196.00	2160.31
197.00	2228.97
198.00	2271.88
199.00	2261.74
200.00	2239.89
201.00	2219.61
202.00	2252.38
203.00	2263.30
204.00	2291.38
205.00	2277.34
206.00	2335.07
207.00	2322.59
208.00	2382.67
209.00	2402.17
210.00	2486.43
211.00	2505.93
212.00	2488.77
213.00	2434.94
214.00	2376.42
215.00	2384.23
216.00	2379.54
217.00	2421.67
218.00	2413.09
219.00	2472.39
220.00	2476.29
221.00	2493.45
222.00	2495.79
223.00	2537.14
224.00	2522.32
225.00	2558.21
226.00	2596.43
227.00	2626.86
228.00	2619.06
229.00	2590.97
230.00	2599.56
231.00	2651.83
232.00	2705.66
233.00	2780.56
234.00	2783.68
235.00	2744.67
236.00	2719.70
237.00	2709.56
238.00	2746.23
239.00	2794.60
240.00	2866.38
241.00	2944.39
242.00	2970.14
243.00	2934.25
244.00	2928.01
245.00	2941.27
246.00	2989.64
247.00	3000.57
248.00	3017.73
249.00	3030.99
250.00	3042.70
251.00	3064.54
252.00	3106.67
253.00	3108.23
254.00	3116.03
255.00	3139.44
256.00	3127.74
257.00	3194.83
258.00	3169.87
259.00	3248.66
260.00	3233.06
261.00	3302.50
262.00	3317.32
263.00	3357.89
264.00	3350.87
265.00	3352.43
266.00	3358.67
267.00	3390.66
268.00	3409.38
269.00	3415.62
270.00	3424.98
271.00	3520.17
272.00	3568.54
273.00	3650.46
274.00	3630.17
275.00	3673.08
276.00	3620.03
277.00	3666.84
278.00	3690.24
279.00	3734.71
280.00	3727.69
281.00	3687.12
282.00	3701.17
283.00	3696.49
284.00	3723.01
285.00	3751.10
286.00	3802.59
287.00	3822.88
288.00	3831.46
289.00	3825.22
290.00	3826.00
291.00	3843.94
292.00	3915.72
293.00	3986.71
294.00	4005.44
295.00	4022.60
296.00	3988.27
297.00	4027.28
298.00	4030.40
299.00	4092.82
300.00	4095.94
301.00	4010.90
302.00	4017.92
303.00	4077.99
304.00	4148.21
305.00	4156.79
306.00	4117.78
307.00	4145.09
308.00	4143.53
309.00	4090.48
310.00	4076.43
311.00	4102.18
312.00	4170.83
313.00	4198.14
314.00	4190.34
315.00	4210.62
316.00	4248.07
317.00	4318.29
318.00	4309.71
319.00	4340.91
320.00	4364.32
321.00	4415.81
322.00	4391.63
323.00	4393.97
324.00	4417.37
325.00	4473.54
326.00	4468.86
327.00	4544.54
328.00	4507.87
329.00	4528.16
330.00	4536.74
331.00	4584.33
332.00	4587.45
333.00	4570.29
334.00	4615.54
335.00	4684.19
336.00	4728.66
337.00	4770.79
338.00	4783.27
339.00	4819.94
340.00	4862.07
341.00	4892.50
342.00	4876.90
343.00	4855.83
344.00	4887.82
345.00	4947.89
346.00	4981.44
347.00	5011.09
348.00	4986.90
349.00	4998.60
350.00	4979.88
351.00	5018.89
352.00	5028.25
353.00	5063.36
354.00	5054.78
355.00	5007.97
356.00	5047.76
357.00	5049.32
358.00	5206.91
359.00	5210.03
360.00	5293.51
361.00	5315.36
362.00	5354.37
363.00	5370.75
364.00	5307.55
365.00	5361.39
366.00	5380.89
367.00	5408.20
368.00	5416.78
369.00	5404.30
370.00	5458.91
371.00	5433.94
372.00	5461.25
373.00	5498.70
374.00	5532.25
375.00	5599.34
376.00	5618.85
377.00	5624.31
378.00	5652.39
379.00	5692.96
380.00	5773.32
381.00	5830.27
382.00	5849.00
383.00	5944.96
384.00	5995.67
385.00	6108.80
386.00	6079.93
387.00	6063.55
388.00	6069.01
389.00	6126.74
390.00	6249.23
391.00	6289.02
392.00	6327.25
393.00	6315.55
394.00	6363.92
395.00	6388.88
396.00	6415.41
397.00	6498.11
398.00	6610.45
399.00	6708.76
400.00	6686.91
401.00	6722.02
402.00	6793.01
403.00	6864.79
404.00	6867.91
405.00	6861.67
406.00	6926.43
407.00	6902.24
408.00	6807.84
409.00	6762.59
410.00	6819.54
411.00	6991.18
412.00	7016.15
413.00	7057.50
414.00	7006.00
415.00	7002.10
416.00	6921.74
417.00	6917.84
418.00	7037.21
419.00	7115.23
420.00	7123.03
421.00	7091.04
422.00	7088.70
423.00	7133.95
424.00	7108.21
425.00	7148.78
426.00	7208.85
427.00	7263.46
428.00	7282.19
429.00	7296.23
430.00	7276.73
431.00	7303.25
432.00	7321.20
433.00	7272.04
434.00	7333.68
435.00	7410.92
436.00	7534.96
437.00	7531.06
438.00	7410.14
439.00	7424.18
440.00	7455.39
441.00	7579.43
442.00	7627.81
443.00	7634.83
444.00	7649.65
445.00	7655.11
446.00	7747.17
447.00	7788.52
448.00	7847.04
449.00	7840.01
450.00	7878.24
451.00	7930.52
452.00	7943.00
453.00	7935.98
454.00	7949.24
455.00	8055.34
456.00	8122.44
457.00	8142.72
458.00	8096.69
459.00	8083.43
460.00	8113.08
461.00	8145.06
462.00	8186.41
463.00	8215.28
464.00	8248.83
465.00	8315.92
466.00	8376.78
467.00	8429.83
468.00	8427.49
469.00	8474.30
470.00	8457.14
471.00	8526.57
472.00	8553.88
473.00	8627.21
474.00	8717.72
475.00	8711.47
476.00	8809.78
477.00	8846.44
478.00	8969.71
479.00	9022.77
480.00	8997.80
481.00	9046.95
482.00	9039.15
483.00	9044.61
484.00	9060.21
485.00	9115.61
486.00	9183.48
487.00	9192.06
488.00	9227.17
489.00	9327.82
490.00	9379.31
491.00	9398.03
492.00	9454.20
493.00	9487.75
494.00	9561.09
495.00	9556.41
496.00	9605.56
497.00	9629.74
498.00	9706.20
499.00	9795.92
500.00	9864.58
501.00	9916.85
502.00	9962.88
503.00	9980.82
504.00	9983.95
505.00	9905.15
506.00	10012.03
507.00	10057.28
508.00	10166.51
509.00	10144.66
510.00	10230.48
511.00	10261.69
512.00	10376.38
513.00	10430.99
514.00	10478.58
515.00	10500.42
516.00	10507.44
517.00	10547.23
518.00	10505.10
519.00	10458.29
520.00	10615.89
521.00	10700.15
522.00	10714.19
523.00	10641.64
524.00	10764.12
525.00	10971.65
526.00	10984.91
527.00	10905.34
528.00	10757.88
529.00	10794.55
530.00	10817.96
531.00	10918.60
532.00	10898.31
533.00	10982.57
534.00	10964.63
535.00	11141.73
536.00	11088.68
537.00	11155.77
538.00	11184.64
539.00	11292.30
540.00	11395.29
541.00	11323.51
542.00	11371.10
543.00	11396.07
544.00	11460.04
545.00	11496.71
546.00	11393.73
547.00	11427.28
548.00	11488.91
549.00	11726.86
550.00	11854.81
551.00	11916.45
552.00	11983.54
553.00	11984.32
554.00	11971.06
555.00	11989.00
556.00	12084.97
557.00	12197.31
558.00	12266.75
559.00	12281.57
560.00	12329.94
561.00	12402.50
562.00	12476.62
563.00	12566.34
564.00	12688.82
565.00	12851.10
566.00	13032.10
567.00	12978.27
568.00	12902.59
569.00	12798.05
570.00	12920.54
571.00	13121.82
572.00	13245.87
573.00	13284.88
574.00	13273.18
575.00	13412.05
576.00	13613.34
577.00	13810.72
578.00	13902.78
579.00	13887.18
580.00	13841.93
581.00	13923.85
582.00	14118.11
583.00	14228.12
584.00	14341.24
585.00	14340.46
586.00	14545.65
587.00	14434.86
588.00	14477.77
589.00	14478.55
590.00	14700.12
591.00	15001.27
592.00	15186.18
593.00	15502.93
594.00	15488.11
595.00	15644.92
596.00	15726.06
597.00	15889.90
598.00	15981.18
599.00	16074.80
600.00	16173.10
601.00	16225.37
602.00	16216.01
603.00	16332.26
604.00	16516.38
605.00	16859.66
606.00	17056.26
607.00	17224.00
608.00	17270.81
609.00	17367.56
610.00	17492.38
611.00	17380.04
612.00	17585.22
613.00	17621.11
614.00	17884.03
615.00	18050.99
616.00	18218.73
617.00	18478.53
618.00	18533.92
619.00	18757.83
620.00	18901.39
621.00	19069.90
622.00	19200.97
623.00	19392.90
624.00	19550.49
625.00	19672.98
626.00	19727.60
627.00	19762.70
628.00	19846.18
629.00	20158.25
630.00	20472.67
631.00	20625.58
632.00	20501.53
633.00	20641.18
634.00	21010.21
635.00	21282.49
636.00	21447.11
637.00	21573.50
638.00	21800.53
639.00	21927.70
640.00	22047.07
641.00	22211.68
642.00	22263.18
643.00	22391.91
644.00	22611.92
645.00	22923.21
646.00	23109.67
647.00	23125.27
648.00	23292.23
649.00	23538.77
650.00	23746.30
651.00	23941.34
652.00	23963.96
653.00	24188.66
654.00	24374.34
655.00	24620.10
656.00	24778.47
657.00	24744.14
658.00	24950.89
659.00	25188.85
660.00	25542.27
661.00	25756.04
662.00	25905.05
663.00	26050.16
664.00	26103.99
665.00	26179.67
666.00	26401.24
667.00	26469.12
668.00	26572.10
669.00	26654.02
670.00	26986.38
671.00	27273.48
672.00	27450.58
673.00	27424.84
674.00	27511.44
675.00	27704.92
676.00	27956.92
677.00	28173.81
678.00	28257.29
679.00	28517.09
680.00	28601.35
681.00	28790.93
682.00	28906.40
683.00	29258.26
684.00	29365.14
685.00	29610.90
686.00	29667.85
687.00	29976.80
688.00	30107.87
689.00	30253.76
690.00	30297.45
691.00	30449.59
692.00	30681.30
693.00	30917.70
694.00	31101.04
695.00	31331.19
696.00	31519.21
697.00	31770.43
698.00	31850.01
699.00	32055.20
700.00	31982.64
701.00	32144.92
702.00	32215.91
703.00	32557.63
704.00	32730.83
705.00	33069.43
706.00	33347.17
707.00	33641.30
708.00	33813.72
709.00	33905.00
710.00	33986.14
711.00	34196.01
712.00	34258.42
713.00	34368.43
714.00	34321.62
715.00	34435.52
716.00	34513.54
717.00	34717.17
718.00	34797.52
719.00	35009.73
720.00	35260.95
721.00	35464.58
722.00	35584.72
723.00	35611.25
724.00	35988.08
725.00	36133.19
726.00	36170.64
727.00	36183.90
728.00	36300.15
729.00	36375.05
730.00	36439.02
731.00	36449.16
732.00	36646.55
733.00	36629.38
734.00	36609.88
735.00	36677.76
736.00	36821.31
737.00	37223.10
738.00	37397.86
739.00	37546.87
740.00	37597.59
741.00	37819.94
742.00	37986.89
743.00	38121.87
744.00	38174.14
745.00	38476.85
746.00	38568.91
747.00	38780.34
748.00	38730.40
749.00	38950.42
750.00	39003.47
751.00	39051.84
752.00	39338.94
753.00	39421.64
754.00	39715.77
755.00	39592.50
756.00	39824.22
757.00	39842.94
758.00	40133.95
759.00	40182.32
760.00	40326.65
761.00	40419.49
762.00	40572.41
763.00	40754.19
764.00	40828.30
765.00	40872.78
766.00	40920.37
767.00	41003.06
768.00	41152.86
769.00	41439.97
770.00	41837.86
771.00	42071.91
772.00	42320.01
773.00	42210.78
774.00	42293.48
775.00	42194.40
776.00	42384.76
777.00	42747.54
778.00	42930.89
779.00	43195.37
780.00	42985.50
781.00	43160.26
782.00	43184.44
783.00	43340.48
784.00	43370.91
785.00	43491.05
786.00	43823.41
787.00	44101.93
788.00	44334.43
789.00	44445.99
790.00	44481.10
791.00	44591.89
792.00	44864.95
793.00	45060.77
794.00	45120.07
795.00	44918.00
796.00	45162.20
797.00	45216.81
798.00	45483.63
799.00	45406.39
800.00	45657.61
801.00	45716.90
802.00	46007.13
803.00	45996.99
804.00	46276.29
805.00	46497.08
806.00	46748.30
807.00	46715.53
808.00	46738.94
809.00	46870.01
810.00	47107.18
811.00	47133.71
812.00	47118.10
813.00	47146.19
814.00	47422.37
815.00	47662.67
816.00	47928.71
817.00	47927.93
818.00	47931.83
819.00	47922.47
820.00	47963.82
821.00	48028.57
822.00	47924.03
823.00	48017.65
824.00	48160.42
825.00	48532.57
826.00	48672.22
827.00	48875.85
828.00	49016.28
829.00	49052.95
830.00	49200.40
831.00	49148.91
832.00	49374.38
833.00	49169.19
834.00	49303.38
835.00	49309.63
836.00	49656.03
837.00	49691.13
838.00	49720.00
839.00	49699.72
840.00	49907.24
841.00	50215.41
842.00	50534.51
843.00	50660.90
844.00	50802.89
845.00	50808.35
846.00	50933.96
847.00	50827.07
848.00	50842.68
849.00	50783.38
850.00	50928.50
851.00	51168.01
852.00	51370.08
853.00	51391.14
854.00	51413.77
855.00	51533.92
856.00	51617.39
857.00	51673.57
858.00	51739.10
859.00	51867.83
860.00	51832.72
861.00	51800.74
862.00	51944.29
863.00	51984.08
864.00	52017.63
865.00	52019.19
866.00	52145.58
867.00	52329.70
868.00	52424.88
869.00	52634.75
870.00	52765.82
871.00	52754.11
872.00	52633.97
873.00	52618.36
874.00	52714.33
875.00	52974.12
876.00	53120.80
877.00	53251.09
878.00	53307.26
879.00	53308.82
880.00	53347.83
881.00	53396.20
882.00	53321.30
883.00	53329.11
884.00	53223.78
885.00	53200.38
886.00	53317.40
887.00	53467.20
888.00	53794.87
889.00	53812.04
890.00	53844.02
891.00	53818.28
892.00	53920.48
893.00	53896.30
894.00	53860.41
895.00	53817.50
896.00	53957.93
897.00	54003.18
898.00	54008.64
899.00	54092.12
900.00	54234.11
901.00	54350.36
902.00	54354.26
903.00	54420.58
904.00	54568.81
905.00	54870.74
906.00	54994.79
907.00	54923.79
908.00	54631.22
909.00	54717.04
910.00	54752.93
911.00	54901.95
912.00	54771.66
913.00	54960.46
914.00	55016.63
915.00	55073.59
916.00	54919.89
917.00	54877.76
918.00	54810.67
919.00	54847.33
920.00	54904.29
921.00	55068.12
922.00	55213.24
923.00	55259.27
924.00	55305.30
925.00	55386.44
926.00	55604.11
927.00	55672.76
928.00	55716.45
929.00	55714.11
930.00	55656.38
931.00	55721.91
932.00	55733.62
933.00	55866.25
934.00	55732.84
935.00	55632.19
936.00	55705.53
937.00	55937.24
938.00	56001.22
939.00	56042.57
940.00	56022.28
941.00	55972.35
942.00	56011.36
943.00	56179.88
944.00	56437.34
945.00	56475.57
946.00	56415.49
947.00	56326.55
948.00	56433.44
949.00	56448.26
950.00	56666.71
951.00	56728.34
952.00	56675.29
953.00	56672.17
954.00	56580.11
955.00	56812.60
956.00	56807.92
957.00	56863.32
958.00	56907.79
959.00	57033.39
960.00	57173.05
961.00	57109.85
962.00	57158.22
963.00	57110.63
964.00	57268.23
965.00	57249.50
966.00	57506.96
967.00	57584.98
968.00	57631.79
969.00	57506.18
970.00	57575.62
971.00	57799.53
972.00	58008.62
973.00	57950.10
974.00	57915.00
975.00	57878.33
976.00	57899.39
977.00	57801.87
978.00	57781.59
979.00	57830.74
980.00	57918.90
981.00	58113.94
982.00	58072.59
983.00	58049.97
984.00	57996.13
985.00	58127.20
986.00	58206.78
987.00	58047.63
988.00	58053.87
989.00	58063.23
990.00	58282.46
991.00	58291.82
992.00	58393.25
993.00	58393.25
994.00	58621.06
995.00	58725.60
996.00	58788.80
997.00	58820.00
998.00	58931.57
999.00	59022.85
1000.00	58980.72
1001.00	58869.15
1002.00	58749.79
1003.00	58661.63
1004.00	58727.94
1005.00	58792.70
1006.00	58867.59
1007.00	58898.02
1008.00	59023.63
1009.00	59023.63
1010.00	59033.77
1011.00	58965.90
1012.00	59122.71
1013.00	59176.54
1014.00	59335.70
1015.00	59275.63
1016.00	59282.65
1017.00	59348.96
1018.00	59418.40
1019.00	59542.45
1020.00	59540.11
1021.00	59598.62
1022.00	59671.96
1023.00	59654.01
1024.00	59674.30
1025.00	59598.62
1026.00	59679.76
1027.00	59771.82
1028.00	59919.27
1029.00	59838.92
1030.00	59834.24
1031.00	59860.76
1032.00	59946.58
1033.00	60094.03
1034.00	60100.28
1035.00	60199.36
1036.00	60155.67
1037.00	60154.89
1038.00	60140.85
1039.00	60126.80
1040.00	60213.40
1041.00	60313.26
1042.00	60365.54
1043.00	60515.33
1044.00	60591.79
1045.00	60746.26
1046.00	60733.78
1047.00	60702.57
1048.00	60703.35
1049.00	60631.58
1050.00	60706.47
1051.00	60712.72
1052.00	60779.81
1053.00	60755.63
1054.00	60738.46
1055.00	60682.29
1056.00	60649.52
1057.00	60717.40
1058.00	60795.42
1059.00	60911.66
1060.00	60993.58
1061.00	61034.15
1062.00	61031.81
1063.00	60983.44
1064.00	60978.76
1065.00	60968.61
1066.00	61016.99
1067.00	61033.37
1068.00	61052.87
1069.00	61074.72
1070.00	61107.49
1071.00	61191.75
1072.00	61268.98
1073.00	61327.50
1074.00	61430.48
1075.00	61427.36
1076.00	61445.30
1077.00	61436.72
1078.00	61508.50
1079.00	61599.00
1080.00	61642.69
1081.00	61655.95
1082.00	61772.20
1083.00	61826.81
1084.00	61886.10
1085.00	61836.17
1086.00	61785.46
1087.00	61750.35
1088.00	61623.18
1089.00	61689.50
1090.00	61677.80
1091.00	61799.51
1092.00	61823.69
1093.00	61830.71
1094.00	61901.71
1095.00	61886.88
1096.00	61924.33
1097.00	61871.28
1098.00	61893.91
1099.00	61983.63
1100.00	62119.38
1101.00	62206.76
1102.00	62181.01
1103.00	62171.65
1104.00	62158.39
1105.00	62240.31
1106.00	62209.88
1107.00	62262.93
1108.00	62329.25
1109.00	62379.96
1110.00	62429.11
1111.00	62300.38
1112.00	62323.00
1113.00	62229.38
1114.00	62291.80
1115.00	62250.45
1116.00	62276.19
1117.00	62266.83
1118.00	62227.82
1119.00	62241.09
1120.00	62274.63
1121.00	62468.90
1122.00	62521.95
1123.00	62500.11
1124.00	62433.79
1125.00	62442.37
1126.00	62504.79
1127.00	62493.86
1128.00	62472.80
1129.00	62442.37
1130.00	62495.42
1131.00	62498.55
1132.00	62558.62
1133.00	62533.65
1134.00	62501.67
1135.00	62425.99
1136.00	62368.26
1137.00	62420.53
1138.00	62517.27
1139.00	62630.40
1140.00	62718.56
1141.00	62780.97
1142.00	62816.86
1143.00	62759.12
1144.00	62739.62
1145.00	62729.48
1146.00	62806.72
1147.00	62771.61
1148.00	62768.49
1149.00	62748.98
1150.00	62773.95
1151.00	62716.99
1152.00	62614.01
1153.00	62638.98
1154.00	62594.51
1155.00	62706.85
1156.00	62665.50
1157.00	62773.17
1158.00	62698.27
1159.00	62720.12
1160.00	62811.40
1161.00	62984.60
1162.00	63008.00
1163.00	62930.76
1164.00	62796.57
1165.00	62880.83
1166.00	62905.02
1167.00	63011.12
1168.00	63061.05
1169.00	63139.85
1170.00	63172.62
1171.00	63115.67
1172.00	63039.21
1173.00	62971.33
1174.00	62988.50
1175.00	63019.70
1176.00	63029.07
1177.00	62951.05
1178.00	62901.12
1179.00	62919.84
1180.00	62993.96
1181.00	63043.89
1182.00	63090.70
1183.00	63106.30
1184.00	63156.24
1185.00	63138.29
1186.00	63179.64
1187.00	63162.48
1188.00	63201.49
1189.00	63111.77
1190.00	63065.73
1191.00	62974.45
1192.00	62951.05
1193.00	62927.64
1194.00	63000.20
1195.00	63036.87
1196.00	63104.74
1197.00	63125.03
1198.00	63110.99
1199.00	63131.27
1200.00	63178.86
1201.00	63239.71
1202.00	63188.22
1203.00	63145.31
1204.00	63103.96
1205.00	63137.51
1206.00	63052.47
1207.00	63043.11
1208.00	62990.84
1209.00	63030.63
1210.00	63132.83
1211.00	63231.91
1212.00	63401.99
1213.00	63391.85
1214.00	63317.73
1215.00	63132.83
1216.00	63041.55
1217.00	63122.69
1218.00	63235.81
1219.00	63337.24
1220.00	63334.90
1221.00	63263.12
1222.00	63246.74
1223.00	63302.13
1224.00	63315.39
1225.00	63285.75
1226.00	63254.54
1227.00	63237.37
1228.00	63174.96
1229.00	63113.33
1230.00	63117.23
1231.00	63256.88
1232.00	63274.82
1233.00	63361.42
1234.00	63341.14
1235.00	63416.04
1236.00	63413.69
1237.00	63440.22
1238.00	63423.06
1239.00	63558.03
1240.00	63650.87
1241.00	63760.87
1242.00	63646.19
1243.00	63559.59
1244.00	63469.87
1245.00	63501.07
1246.00	63547.10
1247.00	63629.02
1248.00	63665.69
1249.00	63704.70
1250.00	63749.95
1251.00	63863.08
1252.00	63948.12
1253.00	64005.07
1254.00	64013.65
1255.00	63945.78
1256.00	63833.43
1257.00	63739.81
1258.00	63795.98
1259.00	63852.94
1260.00	63987.13
1261.00	64018.33
1262.00	64118.20
1263.00	64064.36
1264.00	64027.70
1265.00	63901.31
1266.00	63849.81
1267.00	63810.81
1268.00	63937.19
1269.00	64057.34
1270.00	64140.04
1271.00	64196.99
1272.00	64274.23
1273.00	64303.88
1274.00	64262.53
1275.00	64146.28
1276.00	64188.41
1277.00	64171.25
1278.00	64162.67
1279.00	64120.54
1280.00	64115.08
1281.00	64257.85
1282.00	64348.35
1283.00	64497.36
1284.00	64398.28
1285.00	64444.31
1286.00	64412.32
1287.00	64502.82
1288.00	64438.07
1289.00	64347.57
1290.00	64275.79
1291.00	64292.96
1292.00	64403.74
1293.00	64419.34
1294.00	64415.44
1295.00	64366.29
1296.00	64372.53
1297.00	64327.28
1298.00	64325.72
1299.00	64379.56
1300.00	64502.04
1301.00	64571.48
1302.00	64515.31
1303.00	64479.42
1304.00	64511.41
1305.00	64516.87
1306.00	64470.84
1307.00	64440.41
1308.00	64542.61
1309.00	64537.93
1310.00	64489.56
1311.00	64470.06
1312.00	64609.71
1313.00	64697.09
1314.00	64779.01
1315.00	64792.27
1316.00	64763.40
1317.00	64716.59
1318.00	64684.61
1319.00	64803.97
1320.00	64847.66
1321.00	64920.22
1322.00	64929.58
1323.00	65021.64
1324.00	65009.16
1325.00	64952.99
1326.00	64871.07
1327.00	64821.92
1328.00	64793.83
1329.00	64766.52
1330.00	64748.58
1331.00	64895.25
1332.00	64942.84
1333.00	65080.94
1334.00	65032.56
1335.00	65048.17
1336.00	64989.66
1337.00	65014.62
1338.00	65083.28
1339.00	65178.46
1340.00	65209.67
1341.00	65222.15
1342.00	65142.57
1343.00	65162.85
1344.00	65203.42
1345.00	65215.91
1346.00	65123.07
1347.00	65037.25
1348.00	65052.85
1349.00	65090.30
1350.00	64991.22
1351.00	64953.77
1352.00	64816.46
1353.00	64860.15
1354.00	64812.55
1355.00	64888.23
1356.00	64880.43
1357.00	64945.18
1358.00	64967.81
1359.00	65069.23
1360.00	65140.23
1361.00	65206.54
1362.00	65216.69
1363.00	65197.96
1364.00	65124.63
1365.00	65119.16
1366.00	65033.35
1367.00	65049.73
1368.00	65019.30
1369.00	65051.29
1370.00	65049.73
1371.00	64988.88
1372.00	64999.02
1373.00	64972.49
1374.00	65006.04
1375.00	64998.24
1376.00	65077.82
1377.00	65028.66
1378.00	65014.62
1379.00	64961.57
1380.00	65002.92
1381.00	65066.11
1382.00	65130.09
1383.00	65217.47
1384.00	65245.55
1385.00	65260.38
1386.00	65291.58
1387.00	65290.02
1388.00	65336.05
1389.00	65316.55
1390.00	65326.69
1391.00	65302.51
1392.00	65280.66
1393.00	65242.43
1394.00	65141.01
1395.00	65046.61
1396.00	64972.49
1397.00	64943.62
1398.00	64916.32
1399.00	64970.15
1400.00	65045.83
1401.00	65070.01
1402.00	65031.00
1403.00	64928.80
1404.00	64877.31
1405.00	64857.02
1406.00	64832.84
1407.00	64929.58
1408.00	64935.04
1409.00	64979.51
1410.00	64976.39
1411.00	64967.03
1412.00	65023.98
1413.00	65024.76
1414.00	65060.65
1415.00	65172.22
1416.00	65166.76
1417.00	65197.18
1418.00	65029.44
1419.00	65009.94
1420.00	65006.82
1421.00	65033.35
1422.00	65084.06
1423.00	65037.25
1424.00	65001.36
1425.00	64889.01
1426.00	64822.70
1427.00	64835.18
1428.00	64847.66
1429.00	64877.31
1430.00	64953.77
1431.00	65004.48
1432.00	65027.10
1433.00	65006.82
1434.00	64995.12
1435.00	64951.43
1436.00	64890.57
1437.00	64865.61
1438.00	64880.43
1439.00	64889.79
1440.00	64905.40
1441.00	64963.13
1442.00	65056.75
1443.00	65086.40
1444.00	65059.87
1445.00	64970.15
1446.00	64970.93
1447.00	64886.67
1448.00	64782.13
1449.00	64672.90
1450.00	64718.15
1451.00	64818.80
1452.00	64864.83
1453.00	64899.15
1454.00	64903.84
1455.00	64927.24
1456.00	64866.39
1457.00	64864.83
1458.00	64910.86
1459.00	65009.16
1460.00	65066.89
1461.00	65016.18
1462.00	64900.71
1463.00	64706.45
1464.00	64644.04
1465.00	64649.50
1466.00	64693.97
1467.00	64644.82
1468.00	64605.81
1469.00	64651.06
1470.00	64736.10
1471.00	64770.42
1472.00	64712.69
1473.00	64642.48
1474.00	64643.26
1475.00	64703.33
1476.00	64751.70
1477.00	64781.35
1478.00	64700.99
1479.00	64722.05
1480.00	64637.79
1481.00	64702.55
1482.00	64717.37
1483.00	64751.70
1484.00	64700.99
1485.00	64597.23
1486.00	64470.84
1487.00	64416.22
1488.00	64343.67
1489.00	64338.21
1490.00	64274.23
1491.00	64351.47
1492.00	64406.86
1493.00	64445.09
1494.00	64422.47
1495.00	64444.31
1496.00	64481.76
1497.00	64414.66
1498.00	64431.83
1499.00	64394.38
1500.00	64427.93
1501.00	64349.13
1502.00	64327.28
1503.00	64344.45
1504.00	64410.76
1505.00	64562.90
1506.00	64631.55
1507.00	64638.57
1508.00	64530.13
1509.00	64518.43
1510.00	64473.18
1511.00	64399.06
1512.00	64268.77
1513.00	64312.46
1514.00	64367.07
1515.00	64363.17
1516.00	64213.38
1517.00	64186.85
1518.00	64157.20
1519.00	64189.19
1520.00	64217.28
1521.00	64249.27
1522.00	64173.59
1523.00	64063.58
1524.00	64056.56
1525.00	64225.86
1526.00	64224.30
1527.00	64183.73
1528.00	64115.08
1529.00	64064.36
1530.00	64044.08
1531.00	64009.75
1532.00	64124.44
1533.00	64211.04
1534.00	64185.29
1535.00	64168.13
1536.00	64211.04
1537.00	64267.99
1538.00	64285.93
1539.00	64201.67
1540.00	64160.33
1541.00	64114.29
1542.00	64109.61
1543.00	64168.91
1544.00	64164.23
1545.00	64189.19
1546.00	64168.91
1547.00	64134.58
1548.00	64133.80
1549.00	64072.17
1550.00	64013.65
1551.00	63984.01
1552.00	63929.39
1553.00	63998.05
1554.00	63993.37
1555.00	64014.43
1556.00	64005.85
1557.00	63845.13
1558.00	63855.28
1559.00	63917.69
1560.00	64005.07
1561.00	64003.51
1562.00	63952.02
1563.00	63985.57
1564.00	63984.01
1565.00	63932.51
1566.00	63953.58
1567.00	64019.11
1568.00	64008.19
1569.00	63877.12
1570.00	63774.92
1571.00	63742.15
1572.00	63732.79
1573.00	63728.11
1574.00	63681.30
1575.00	63687.54
1576.00	63571.29
1577.00	63604.06
1578.00	63573.63
1579.00	63591.58
1580.00	63536.18
1581.00	63561.93
1582.00	63561.93
1583.00	63565.83
1584.00	63533.84
1585.00	63522.92
1586.00	63488.59
1587.00	63404.33
1588.00	63409.01
1589.00	63438.66
1590.00	63439.44
1591.00	63450.36
1592.00	63416.03
1593.00	63434.76
1594.00	63412.13
1595.00	63399.65
1596.00	63493.27
1597.00	63558.81
1598.00	63614.98
1599.00	63604.06
1600.00	63571.29
1601.00	63452.70
1602.00	63402.77
1603.00	63350.50
1604.00	63431.64
1605.00	63423.06
1606.00	63384.05
1607.00	63350.50
1608.00	63342.70
1609.00	63307.59
1610.00	63286.53
1611.00	63321.63
1612.00	63337.24
1613.00	63455.82
1614.00	63418.38
1615.00	63503.42
1616.00	63477.67
1617.00	63471.43
1618.00	63408.23
1619.00	63277.94
1620.00	63240.49
1621.00	63192.90
1622.00	63270.92
1623.00	63253.76
1624.00	63334.90
1625.00	63262.34
1626.00	63225.67
1627.00	63165.60
1628.00	63221.77
1629.00	63338.02
1630.00	63449.58
1631.00	63538.52
1632.00	63524.48
1633.00	63416.03
1634.00	63366.88
1635.00	63298.23
1636.00	63269.36
1637.00	63161.70
1638.00	63072.76
1639.00	62993.96
1640.00	62966.65
1641.00	63041.55
1642.00	63085.24
1643.00	63090.70
1644.00	62976.79
1645.00	62934.66
1646.00	62912.82
1647.00	62892.54
1648.00	62947.15
1649.00	62984.60
1650.00	62976.01
1651.00	62799.69
1652.00	62735.72
1653.00	62793.45
1654.00	62848.06
1655.00	62807.50
1656.00	62729.48
1657.00	62818.42
1658.00	62895.66
1659.00	63068.08
1660.00	63073.54
1661.00	63076.66
1662.00	63075.10
1663.00	63046.23
1664.00	63069.64
1665.00	63044.67
1666.00	63079.00
1667.00	63046.23
1668.00	62981.48
1669.00	62981.48
1670.00	62968.21
1671.00	63025.95
1672.00	63052.47
1673.00	63079.78
1674.00	63106.30
1675.00	62997.86
1676.00	62910.48
1677.00	62787.99
1678.00	62711.53
1679.00	62605.43
1680.00	62541.45
1681.00	62633.52
1682.00	62699.05
1683.00	62727.14
1684.00	62600.75
1685.00	62581.24
1686.00	62571.10
1687.00	62604.65
1688.00	62532.87
1689.00	62380.74
1690.00	62289.46
1691.00	62289.46
1692.00	62383.86
1693.00	62496.20
1694.00	62489.18
1695.00	62589.83
1696.00	62590.61
1697.00	62620.25
1698.00	62462.66
1699.00	62304.28
1700.00	62238.75
1701.00	62224.70
1702.00	62298.82
1703.00	62286.34
1704.00	62294.92
1705.00	62220.02
1706.00	62219.24
1707.00	62126.40
1708.00	62020.30
1709.00	61907.17
1710.00	61992.21
1711.00	62068.67
1712.00	62143.56
1713.00	62024.98
1714.00	61981.29
1715.00	61971.14
1716.00	61985.19
1717.00	61914.97
1718.00	61811.99
1719.00	61773.76
1720.00	61854.12
1721.00	61797.16
1722.00	61784.68
1723.00	61767.52
1724.00	61791.70
1725.00	61697.30
1726.00	61566.23
1727.00	61517.86
1728.00	61559.99
1729.00	61636.45
1730.00	61712.12
1731.00	61734.75
1732.00	61717.59
1733.00	61677.02
1734.00	61748.79
1735.00	61717.59
1736.00	61677.02
1737.00	61542.83
1738.00	61492.89
1739.00	61461.69
1740.00	61350.12
1741.00	61276.79
1742.00	61208.91
1743.00	61206.57
1744.00	61172.24
1745.00	61085.64
1746.00	61130.11
1747.00	61102.81
1748.00	61144.16
1749.00	61070.82
1750.00	61020.11
1751.00	61002.94
1752.00	60938.97
1753.00	60883.58
1754.00	60735.34
1755.00	60637.82
1756.00	60591.79
1757.00	60667.47
1758.00	60615.19
1759.00	60604.27
1760.00	60514.55
1761.00	60504.41
1762.00	60358.52
1763.00	60210.28
1764.00	60074.53
1765.00	60135.38
1766.00	60189.22
1767.00	60280.50
1768.00	60271.14
1769.00	60255.53
1770.00	60275.04
1771.00	60192.34
1772.00	60119.00
1773.00	59992.61
1774.00	59989.49
1775.00	59938.00
1776.00	59906.79
1777.00	59842.04
1778.00	59824.87
1779.00	59806.93
1780.00	59783.52
1781.00	59737.49
1782.00	59702.38
1783.00	59637.63
1784.00	59660.26
1785.00	59643.87
1786.00	59659.48
1787.00	59591.60
1788.00	59496.42
1789.00	59418.40
1790.00	59335.70
1791.00	59316.20
1792.00	59255.34
1793.00	59252.22
1794.00	59164.84
1795.00	59113.35
1796.00	59019.73
1797.00	58986.96
1798.00	59032.21
1799.00	59015.05
1800.00	58848.09
1801.00	58730.28
1802.00	58724.04
1803.00	58772.41
1804.00	58669.43
1805.00	58578.15
1806.00	58489.99
1807.00	58432.25
1808.00	58194.30
1809.00	58179.48
1810.00	58124.08
1811.00	58100.68
1812.00	57914.22
1813.00	57769.10
1814.00	57687.96
1815.00	57691.86
1816.00	57631.79
1817.00	57544.41
1818.00	57366.53
1819.00	57208.15
1820.00	57119.99
1821.00	57132.48
1822.00	57109.07
1823.00	57078.64
1824.00	57095.03
1825.00	57130.92
1826.00	57173.83
1827.00	57097.37
1828.00	57026.37
1829.00	56981.12
1830.00	56641.74
1831.00	56505.21
1832.00	56347.62
1833.00	56383.51
1834.00	56170.52
1835.00	55994.20
1836.00	55803.05
1837.00	55857.66
1838.00	55674.32
1839.00	55618.93
1840.00	55505.02
1841.00	55644.68
1842.00	55757.80
1843.00	55707.87
1844.00	55576.80
1845.00	55423.89
1846.00	55208.56
1847.00	55001.03
1848.00	54708.46
1849.00	54502.49
1850.00	54424.48
1851.00	54444.76
1852.00	54568.03
1853.00	54578.17
1854.00	54443.20
1855.00	54299.65
1856.00	54018.00
1857.00	53996.16
1858.00	53921.26
1859.00	53931.40
1860.00	53658.34
1861.00	53488.26
1862.00	53190.23
1863.00	53148.88
1864.00	52890.65
1865.00	52922.63
1866.00	52732.27
1867.00	52677.66
1868.00	52463.11
1869.00	52455.31
1870.00	52444.38
1871.00	52440.48
1872.00	52289.91
1873.00	52115.15
1874.00	51987.20
1875.00	51720.38
1876.00	51559.66
1877.00	51338.87
1878.00	51391.14
1879.00	51267.09
1880.00	51308.44
1881.00	51066.59
1882.00	50885.59
1883.00	50602.38
1884.00	50477.55
1885.00	50327.76
1886.00	50142.08
1887.00	50082.00
1888.00	50033.63
1889.00	50020.37
1890.00	49902.56
1891.00	49788.66
1892.00	49524.18
1893.00	49533.54
1894.00	49605.31
1895.00	49554.60
1896.00	49413.39
1897.00	49160.61
1898.00	48957.77
1899.00	48714.35
1900.00	48510.72
1901.00	48240.00
1902.00	47909.21
1903.00	47637.70
1904.00	47554.22
1905.00	47672.81
1906.00	47625.22
1907.00	47512.88
1908.00	47292.86
1909.00	47071.29
1910.00	47012.78
1911.00	46794.33
1912.00	46601.63
1913.00	46383.18
1914.00	46077.35
1915.00	45938.47
1916.00	45809.75
1917.00	45716.90
1918.00	45287.03
1919.00	44909.42
1920.00	44630.90
1921.00	44695.65
1922.00	44637.14
1923.00	44513.09
1924.00	44194.00
1925.00	43963.06
1926.00	43676.74
1927.00	43319.42
1928.00	42874.71
1929.00	42734.28
1930.00	42666.41
1931.00	42662.50
1932.00	42321.57
1933.00	42452.64
1934.00	42343.41
1935.00	42328.59
1936.00	41801.19
1937.00	41656.07
1938.00	41489.12
1939.00	41362.73
1940.00	41037.39
1941.00	40643.40
1942.00	40340.69
1943.00	40147.99
1944.00	39909.25
1945.00	39810.17
1946.00	39594.06
1947.00	39579.24
1948.00	39426.32
1949.00	39348.31
1950.00	39341.28
1951.00	39214.12
1952.00	39181.35
1953.00	38685.93
1954.00	38357.48
1955.00	37959.59
1956.00	37681.84
1957.00	37273.81
1958.00	36991.39
1959.00	36691.02
1960.00	36550.59
1961.00	36240.07
1962.00	36093.40
1963.00	35965.45
1964.00	35973.25
1965.00	35866.37
1966.00	35662.74
1967.00	35251.59
1968.00	34913.77
1969.00	34516.66
1970.00	34206.93
1971.00	33869.89
1972.00	33660.80
1973.00	33593.71
1974.00	33509.45
1975.00	33457.96
1976.00	32933.68
1977.00	32725.37
1978.00	32471.81
1979.00	32503.80
1980.00	32337.62
1981.00	32059.88
1982.00	31850.01
1983.00	31640.92
1984.00	31396.73
1985.00	31250.83
1986.00	31117.42
1987.00	30925.50
1988.00	30746.06
1989.00	30518.25
1990.00	30410.58
1991.00	30113.33
1992.00	29858.21
1993.00	29573.45
1994.00	29378.40
1995.00	29225.49
1996.00	29168.54
1997.00	29028.88
1998.00	28783.13
1999.00	28454.67
2000.00	28219.06
2001.00	28004.51
2002.00	27858.62
2003.00	27646.41
2004.00	27466.19
2005.00	27175.96
2006.00	26877.15
2007.00	26693.03
2008.00	26519.83
2009.00	26295.14
2010.00	26086.05
2011.00	25906.61
2012.00	25903.49
2013.00	25901.15
2014.00	25746.67
2015.00	25417.44
2016.00	25150.62
2017.00	24999.26
2018.00	24923.58
2019.00	24581.87
2020.00	24293.20
2021.00	24030.28
2022.00	23956.16
2023.00	23906.23
2024.00	23806.37
2025.00	23633.95
2026.00	23452.17
2027.00	23275.85
2028.00	23097.97
2029.00	22919.31
2030.00	22868.59
2031.00	22829.59
2032.00	22760.93
2033.00	22595.53
2034.00	22349.78
2035.00	22097.00
2036.00	21811.45
2037.00	21451.79
2038.00	21263.77
2039.00	20993.83
2040.00	20886.94
2041.00	20722.32
2042.00	20531.18
2043.00	20418.83
2044.00	20275.28
2045.00	20256.56
2046.00	20121.59
2047.00	19950.73
>>>>>End Processed Spectral Data<<<<<
