SpectraSuite Data File
++++++++++++++++++++++++++++++++++++
Date: Thu Nov 16 14:12:24 EST 2017
User: cheriyan
Dark Spectrum Present: No
Reference Spectrum Present: No
Number of Sampled Component Spectra: 1
Spectrometers: USB2+H05261
Integration Time (usec): 100000 (USB2+H05261)
Spectra Averaged: 1 (USB2+H05261)
Boxcar Smoothing: 1 (USB2+H05261)
Correct for Electrical Dark: No (USB2+H05261)
Strobe/Lamp Enabled: No (USB2+H05261)
Correct for Detector Non-linearity: No (USB2+H05261)
Correct for Stray Light: No (USB2+H05261)
Number of Pixels in Processed Spectrum: 2048
>>>>>Begin Processed Spectral Data<<<<<
0.00	278.52
1.00	278.52
2.00	259.80
3.00	241.08
4.00	248.88
5.00	255.12
6.00	274.62
7.00	257.46
8.00	263.70
9.00	263.70
10.00	252.00
11.00	250.44
12.00	241.86
13.00	259.02
14.00	249.66
15.00	270.72
16.00	261.36
17.00	251.22
18.00	227.81
19.00	237.17
20.00	254.34
21.00	263.70
22.00	266.04
23.00	320.65
24.00	413.49
25.00	532.86
26.00	616.34
27.00	649.11
28.00	666.27
29.00	688.90
30.00	694.36
31.00	694.36
32.00	674.07
33.00	679.54
34.00	661.59
35.00	668.61
36.00	682.66
37.00	688.90
38.00	674.07
39.00	670.95
40.00	697.48
41.00	741.17
42.00	748.19
43.00	743.51
44.00	748.19
45.00	770.82
46.00	784.08
47.00	760.67
48.00	755.21
49.00	753.65
50.00	794.22
51.00	816.07
52.00	851.96
53.00	842.59
54.00	806.70
55.00	793.44
56.00	798.12
57.00	791.10
58.00	783.30
59.00	778.62
60.00	802.02
61.00	785.64
62.00	764.58
63.00	763.01
64.00	787.20
65.00	798.90
66.00	809.83
67.00	793.44
68.00	780.96
69.00	755.99
70.00	800.46
71.00	833.23
72.00	851.17
73.00	812.95
74.00	785.64
75.00	809.05
76.00	820.75
77.00	833.23
78.00	816.07
79.00	826.21
80.00	857.42
81.00	851.95
82.00	864.44
83.00	867.56
84.00	869.12
85.00	864.44
86.00	849.61
87.00	883.94
88.00	887.06
89.00	874.58
90.00	873.02
91.00	861.32
92.00	897.99
93.00	888.62
94.00	897.21
95.00	890.18
96.00	885.50
97.00	919.05
98.00	936.21
99.00	944.80
100.00	916.71
101.00	883.16
102.00	905.79
103.00	896.43
104.00	927.63
105.00	903.45
106.00	922.95
107.00	916.71
108.00	937.77
109.00	900.33
110.00	905.01
111.00	906.57
112.00	967.42
113.00	973.66
114.00	969.76
115.00	969.76
116.00	979.12
117.00	1013.45
118.00	1018.91
119.00	1025.93
120.00	1014.23
121.00	997.85
122.00	995.51
123.00	990.83
124.00	1029.84
125.00	1017.35
126.00	1050.90
127.00	1064.94
128.00	1116.44
129.00	1119.56
130.00	1092.25
131.00	1068.06
132.00	1050.12
133.00	1066.50
134.00	1077.43
135.00	1100.05
136.00	1116.44
137.00	1134.38
138.00	1124.24
139.00	1135.16
140.00	1115.66
141.00	1134.38
142.00	1148.42
143.00	1142.18
144.00	1121.12
145.00	1106.29
146.00	1107.07
147.00	1135.16
148.00	1128.14
149.00	1162.47
150.00	1152.32
151.00	1208.50
152.00	1237.36
153.00	1266.23
154.00	1256.87
155.00	1224.10
156.00	1210.06
157.00	1156.22
158.00	1167.15
159.00	1169.49
160.00	1210.84
161.00	1210.06
162.00	1225.66
163.00	1263.11
164.00	1323.96
165.00	1334.11
166.00	1303.68
167.00	1274.81
168.00	1253.75
169.00	1281.83
170.00	1299.78
171.00	1330.20
172.00	1331.76
173.00	1357.51
174.00	1366.09
175.00	1365.31
176.00	1343.47
177.00	1375.45
178.00	1401.20
179.00	1369.21
180.00	1373.89
181.00	1384.04
182.00	1428.51
183.00	1434.75
184.00	1400.42
185.00	1417.58
186.00	1373.89
187.00	1405.10
188.00	1394.18
189.00	1432.41
190.00	1460.49
191.00	1443.33
192.00	1467.52
193.00	1437.87
194.00	1469.08
195.00	1473.76
196.00	1509.65
197.00	1524.47
198.00	1525.25
199.00	1519.79
200.00	1524.47
201.00	1540.85
202.00	1551.00
203.00	1582.98
204.00	1608.73
205.00	1592.34
206.00	1581.42
207.00	1532.27
208.00	1529.15
209.00	1548.65
210.00	1604.83
211.00	1630.57
212.00	1679.72
213.00	1680.50
214.00	1692.21
215.00	1640.72
216.00	1666.46
217.00	1678.94
218.00	1701.57
219.00	1673.48
220.00	1674.26
221.00	1719.51
222.00	1729.66
223.00	1760.08
224.00	1737.46
225.00	1740.58
226.00	1742.92
227.00	1740.58
228.00	1805.33
229.00	1821.72
230.00	1801.43
231.00	1739.02
232.00	1721.07
233.00	1767.10
234.00	1799.87
235.00	1842.78
236.00	1873.21
237.00	1890.37
238.00	1881.01
239.00	1886.47
240.00	1908.32
241.00	1949.67
242.00	1957.47
243.00	1959.81
244.00	1955.91
245.00	1942.64
246.00	1948.11
247.00	1977.75
248.00	2025.34
249.00	2038.61
250.00	2019.10
251.00	2018.32
252.00	2040.95
253.00	2095.56
254.00	2136.91
255.00	2135.35
256.00	2129.89
257.00	2099.46
258.00	2120.53
259.00	2076.06
260.00	2077.62
261.00	2071.37
262.00	2179.82
263.00	2249.25
264.00	2292.94
265.00	2280.46
266.00	2274.22
267.00	2272.66
268.00	2267.98
269.00	2261.74
270.00	2279.68
271.00	2302.31
272.00	2322.59
273.00	2326.49
274.00	2338.98
275.00	2324.15
276.00	2345.22
277.00	2340.54
278.00	2352.24
279.00	2367.06
280.00	2375.64
281.00	2443.52
282.00	2458.34
283.00	2452.10
284.00	2446.64
285.00	2434.94
286.00	2487.99
287.00	2455.22
288.00	2465.36
289.00	2448.20
290.00	2449.76
291.00	2470.05
292.00	2471.61
293.00	2552.74
294.00	2595.65
295.00	2642.46
296.00	2651.05
297.00	2615.94
298.00	2582.39
299.00	2541.82
300.00	2568.35
301.00	2574.59
302.00	2524.66
303.00	2541.04
304.00	2556.65
305.00	2674.45
306.00	2686.15
307.00	2714.24
308.00	2690.84
309.00	2649.49
310.00	2654.95
311.00	2657.29
312.00	2707.22
313.00	2652.61
314.00	2683.81
315.00	2658.85
316.00	2749.35
317.00	2723.60
318.00	2750.91
319.00	2715.02
320.00	2737.65
321.00	2759.49
322.00	2811.76
323.00	2832.05
324.00	2855.45
325.00	2864.82
326.00	2894.46
327.00	2949.08
328.00	2917.87
329.00	2892.12
330.00	2853.11
331.00	2870.28
332.00	2876.52
333.00	2896.80
334.00	2922.55
335.00	3006.81
336.00	3021.63
337.00	3014.61
338.00	2952.20
339.00	2992.76
340.00	3029.43
341.00	3082.49
342.00	3080.14
343.00	3145.68
344.00	3153.48
345.00	3172.21
346.00	3155.82
347.00	3162.06
348.00	3144.12
349.00	3137.10
350.00	3158.94
351.00	3187.81
352.00	3211.22
353.00	3219.02
354.00	3240.86
355.00	3245.54
356.00	3302.50
357.00	3300.16
358.00	3314.20
359.00	3279.09
360.00	3286.11
361.00	3319.66
362.00	3356.33
363.00	3398.46
364.00	3407.04
365.00	3374.27
366.00	3383.63
367.00	3399.24
368.00	3466.33
369.00	3483.50
370.00	3512.36
371.00	3494.42
372.00	3475.70
373.00	3471.01
374.00	3446.05
375.00	3510.02
376.00	3534.99
377.00	3627.83
378.00	3641.09
379.00	3666.84
380.00	3676.20
381.00	3672.30
382.00	3691.81
383.00	3723.01
384.00	3730.03
385.00	3740.96
386.00	3766.70
387.00	3817.41
388.00	3831.46
389.00	3852.52
390.00	3848.62
391.00	3907.91
392.00	3903.23
393.00	3947.70
394.00	3978.13
395.00	4054.59
396.00	4081.89
397.00	4100.62
398.00	4076.43
399.00	4131.05
400.00	4117.78
401.00	4198.92
402.00	4212.96
403.00	4269.92
404.00	4282.40
405.00	4320.63
406.00	4319.85
407.00	4266.80
408.00	4227.79
409.00	4250.41
410.00	4324.53
411.00	4365.10
412.00	4360.42
413.00	4341.69
414.00	4369.78
415.00	4397.09
416.00	4437.66
417.00	4432.19
418.00	4452.48
419.00	4444.68
420.00	4438.44
421.00	4457.16
422.00	4473.54
423.00	4494.61
424.00	4511.77
425.00	4506.31
426.00	4568.73
427.00	4530.50
428.00	4522.70
429.00	4505.53
430.00	4560.92
431.00	4594.47
432.00	4607.73
433.00	4604.61
434.00	4628.80
435.00	4634.26
436.00	4652.98
437.00	4653.77
438.00	4703.70
439.00	4736.46
440.00	4776.25
441.00	4787.96
442.00	4807.46
443.00	4828.53
444.00	4851.93
445.00	4904.98
446.00	4890.94
447.00	4901.86
448.00	4841.01
449.00	4837.89
450.00	4834.77
451.00	4880.02
452.00	4939.31
453.00	4898.74
454.00	4888.60
455.00	4905.76
456.00	4934.63
457.00	5005.63
458.00	5073.50
459.00	5094.57
460.00	5105.49
461.00	5103.15
462.00	5214.71
463.00	5210.81
464.00	5192.87
465.00	5174.92
466.00	5243.58
467.00	5306.77
468.00	5308.34
469.00	5308.34
470.00	5312.24
471.00	5411.32
472.00	5444.87
473.00	5494.02
474.00	5478.41
475.00	5478.41
476.00	5508.06
477.00	5550.19
478.00	5599.34
479.00	5644.59
480.00	5660.20
481.00	5664.88
482.00	5638.35
483.00	5629.77
484.00	5676.58
485.00	5768.64
486.00	5768.64
487.00	5739.77
488.00	5677.36
489.00	5692.18
490.00	5760.84
491.00	5797.51
492.00	5939.50
493.00	6005.81
494.00	6079.15
495.00	6001.13
496.00	5998.01
497.00	6028.44
498.00	6172.77
499.00	6146.25
500.00	6141.57
501.00	6072.91
502.00	6083.05
503.00	6015.96
504.00	6047.16
505.00	6095.54
506.00	6190.72
507.00	6201.64
508.00	6233.63
509.00	6180.57
510.00	6259.37
511.00	6291.36
512.00	6441.15
513.00	6473.14
514.00	6509.81
515.00	6534.78
516.00	6549.60
517.00	6583.93
518.00	6609.67
519.00	6620.60
520.00	6638.54
521.00	6665.07
522.00	6702.51
523.00	6785.99
524.00	6768.05
525.00	6783.65
526.00	6710.32
527.00	6767.27
528.00	6732.94
529.00	6764.15
530.00	6746.20
531.00	6751.67
532.00	6759.47
533.00	6790.67
534.00	6854.65
535.00	6912.38
536.00	6908.48
537.00	6838.27
538.00	6846.85
539.00	6917.06
540.00	6995.86
541.00	7030.19
542.00	7000.54
543.00	7042.67
544.00	7074.66
545.00	7130.83
546.00	7142.53
547.00	7211.97
548.00	7226.79
549.00	7350.06
550.00	7353.18
551.00	7399.99
552.00	7358.64
553.00	7348.50
554.00	7290.77
555.00	7332.90
556.00	7385.95
557.00	7517.02
558.00	7606.74
559.00	7660.57
560.00	7718.31
561.00	7743.27
562.00	7779.94
563.00	7771.36
564.00	7744.05
565.00	7760.44
566.00	7882.92
567.00	7935.20
568.00	7974.21
569.00	7938.32
570.00	8069.39
571.00	8202.02
572.00	8273.79
573.00	8195.00
574.00	8191.09
575.00	8248.83
576.00	8355.71
577.00	8320.60
578.00	8379.90
579.00	8460.26
580.00	8528.13
581.00	8614.73
582.00	8657.64
583.00	8813.68
584.00	8869.07
585.00	8910.42
586.00	8913.54
587.00	8820.70
588.00	8839.42
589.00	8929.92
590.00	9053.97
591.00	9133.55
592.00	9221.71
593.00	9440.16
594.00	9614.92
595.00	9684.36
596.00	9650.81
597.00	9664.85
598.00	9729.61
599.00	9859.12
600.00	10004.23
601.00	10122.82
602.00	10185.23
603.00	10247.65
604.00	10370.13
605.00	10507.44
606.00	10486.38
607.00	10448.93
608.00	10402.90
609.00	10553.48
610.00	10611.99
611.00	10620.57
612.00	10600.29
613.00	10679.08
614.00	10853.06
615.00	10984.91
616.00	11035.63
617.00	11172.16
618.00	11268.90
619.00	11436.64
620.00	11500.61
621.00	11565.37
622.00	11601.26
623.00	11771.33
624.00	11903.96
625.00	12041.28
626.00	12051.42
627.00	12101.35
628.00	12201.99
629.00	12365.05
630.00	12539.03
631.00	12617.05
632.00	12606.91
633.00	12717.69
634.00	12766.06
635.00	12900.25
636.00	12935.36
637.00	13114.02
638.00	13163.95
639.00	13255.23
640.00	13249.77
641.00	13315.31
642.00	13440.92
643.00	13632.84
644.00	13865.33
645.00	13919.17
646.00	13936.33
647.00	13878.60
648.00	13963.64
649.00	14088.46
650.00	14223.44
651.00	14352.16
652.00	14416.14
653.00	14567.49
654.00	14600.26
655.00	14719.63
656.00	14712.61
657.00	14885.81
658.00	15019.22
659.00	15235.33
660.00	15403.85
661.00	15492.79
662.00	15580.95
663.00	15509.17
664.00	15638.68
665.00	15700.31
666.00	15959.33
667.00	16040.47
668.00	16119.27
669.00	16244.88
670.00	16354.10
671.00	16494.54
672.00	16496.10
673.00	16565.53
674.00	16570.99
675.00	16610.00
676.00	16706.74
677.00	16940.02
678.00	16998.53
679.00	17191.23
680.00	17171.73
681.00	17380.82
682.00	17539.97
683.00	17716.30
684.00	17917.58
685.00	18047.09
686.00	18291.29
687.00	18330.30
688.00	18355.26
689.00	18373.21
690.00	18470.73
691.00	18584.63
692.00	18796.06
693.00	18973.94
694.00	19088.63
695.00	19075.37
696.00	19016.07
697.00	18976.28
698.00	18991.89
699.00	19135.44
700.00	19233.74
701.00	19353.89
702.00	19405.38
703.00	19612.91
704.00	19781.43
705.00	19926.54
706.00	20009.24
707.00	20098.96
708.00	20247.97
709.00	20363.44
710.00	20510.89
711.00	20712.96
712.00	20820.63
713.00	20865.88
714.00	20875.24
715.00	20929.07
716.00	21107.73
717.00	21341.78
718.00	21412.78
719.00	21482.22
720.00	21306.68
721.00	21316.82
722.00	21397.96
723.00	21634.35
724.00	21866.06
725.00	21816.91
726.00	21783.37
727.00	21956.57
728.00	22040.82
729.00	22234.31
730.00	22174.24
731.00	22287.36
732.00	22201.54
733.00	22274.10
734.00	22281.90
735.00	22490.21
736.00	22574.47
737.00	22762.49
738.00	22742.99
739.00	22757.03
740.00	22725.82
741.00	22991.86
742.00	23240.74
743.00	23353.87
744.00	23288.33
745.00	23273.51
746.00	23410.82
747.00	23594.16
748.00	23592.60
749.00	23717.43
750.00	23666.72
751.00	23791.55
752.00	23779.84
753.00	23874.24
754.00	24003.75
755.00	24106.74
756.00	24198.02
757.00	24000.63
758.00	24146.53
759.00	24229.23
760.00	24524.91
761.00	24543.64
762.00	24617.75
763.00	24829.18
764.00	24884.58
765.00	25100.69
766.00	25177.14
767.00	25352.68
768.00	25291.05
769.00	25349.56
770.00	25453.33
771.00	25657.73
772.00	25870.72
773.00	25923.77
774.00	26125.84
775.00	25967.46
776.00	26042.36
777.00	25933.92
778.00	26047.82
779.00	26153.93
780.00	26217.12
781.00	26387.20
782.00	26579.12
783.00	26842.04
784.00	26821.76
785.00	26810.06
786.00	26808.50
787.00	26980.92
788.00	27005.10
789.00	27158.80
790.00	27374.13
791.00	27494.27
792.00	27444.34
793.00	27431.08
794.00	27462.29
795.00	27574.63
796.00	27625.34
797.00	27754.85
798.00	27834.43
799.00	27937.41
800.00	27990.47
801.00	28126.22
802.00	28326.72
803.00	28438.29
804.00	28513.19
805.00	28544.39
806.00	28591.20
807.00	28621.63
808.00	28662.98
809.00	28752.70
810.00	28816.68
811.00	29019.52
812.00	29188.82
813.00	29373.72
814.00	29376.06
815.00	29455.64
816.00	29702.96
817.00	29791.90
818.00	29788.00
819.00	29636.64
820.00	29655.37
821.00	30061.84
822.00	30168.73
823.00	30221.78
824.00	30012.69
825.00	30050.14
826.00	30097.73
827.00	30234.26
828.00	30401.22
829.00	30458.95
830.00	30558.03
831.00	30710.17
832.00	31005.86
833.00	30995.71
834.00	30870.11
835.00	30805.35
836.00	31035.50
837.00	31212.60
838.00	31246.15
839.00	31257.85
840.00	31266.44
841.00	31368.64
842.00	31433.39
843.00	31700.22
844.00	31878.88
845.00	31992.00
846.00	31948.31
847.00	31959.24
848.00	32059.88
849.00	32247.12
850.00	32275.99
851.00	32385.99
852.00	32261.94
853.00	32370.39
854.00	32403.16
855.00	32438.26
856.00	32287.69
857.00	32194.85
858.00	32471.81
859.00	32763.60
860.00	32879.85
861.00	32816.65
862.00	32858.78
863.00	33085.03
864.00	33118.58
865.00	33279.30
866.00	33441.57
867.00	33670.17
868.00	33682.65
869.00	33983.80
870.00	34140.61
871.00	34314.59
872.00	34068.84
873.00	34010.32
874.00	34096.92
875.00	34060.26
876.00	34278.71
877.00	34347.36
878.00	34480.77
879.00	34510.42
880.00	34356.72
881.00	34359.84
882.00	34070.40
883.00	34299.77
884.00	34248.28
885.00	34423.82
886.00	34430.84
887.00	34512.76
888.00	34620.42
889.00	34614.18
890.00	34905.19
891.00	35015.97
892.00	35137.68
893.00	34979.31
894.00	34955.90
895.00	34977.75
896.00	35093.21
897.00	35138.46
898.00	35306.20
899.00	35501.25
900.00	35782.11
901.00	35913.96
902.00	36136.31
903.00	36362.56
904.00	36452.28
905.00	36480.37
906.00	36391.43
907.00	36329.02
908.00	36169.86
909.00	36403.91
910.00	36455.40
911.00	36576.33
912.00	36243.98
913.00	36130.07
914.00	35996.66
915.00	36261.92
916.00	36357.88
917.00	36612.22
918.00	36630.16
919.00	36749.53
920.00	36680.88
921.00	36586.47
922.00	36754.99
923.00	36809.61
924.00	37085.01
925.00	37013.23
926.00	37190.33
927.00	37206.72
928.00	37425.17
929.00	37553.12
930.00	37695.89
931.00	37751.28
932.00	37824.62
933.00	37839.44
934.00	37741.14
935.00	37618.65
936.00	37552.34
937.00	37620.99
938.00	37660.00
939.00	37666.24
940.00	37672.48
941.00	37648.30
942.00	37764.54
943.00	37946.33
944.00	38010.30
945.00	38180.38
946.00	38195.98
947.00	38350.46
948.00	38371.52
949.00	38387.13
950.00	38408.19
951.00	38249.03
952.00	38056.33
953.00	37820.72
954.00	37804.33
955.00	38266.98
956.00	38667.21
957.00	38976.94
958.00	38951.20
959.00	39189.15
960.00	39217.24
961.00	39337.38
962.00	39253.90
963.00	39332.70
964.00	39511.36
965.00	39731.37
966.00	39884.29
967.00	40019.26
968.00	40072.31
969.00	40113.66
970.00	40228.35
971.00	40357.86
972.00	40587.23
973.00	40306.37
974.00	40282.96
975.00	40373.46
976.00	40388.28
977.00	40261.90
978.00	39882.73
979.00	39927.20
980.00	39845.28
981.00	40115.22
982.00	40231.47
983.00	40429.63
984.00	40599.71
985.00	40756.53
986.00	40863.41
987.00	40785.40
988.00	40868.09
989.00	40889.16
990.00	40964.84
991.00	40925.05
992.00	40974.20
993.00	40888.38
994.00	41078.74
995.00	41276.91
996.00	41407.98
997.00	41519.54
998.00	41705.23
999.00	42021.98
1000.00	42075.03
1001.00	42167.87
1002.00	42029.78
1003.00	41883.11
1004.00	41773.88
1005.00	41844.10
1006.00	42104.68
1007.00	42167.09
1008.00	42408.95
1009.00	42411.29
1010.00	42490.87
1011.00	42317.67
1012.00	42210.00
1013.00	42039.92
1014.00	42084.39
1015.00	42221.70
1016.00	42349.65
1017.00	42656.26
1018.00	42862.23
1019.00	43111.89
1020.00	43041.67
1021.00	42969.90
1022.00	42909.04
1023.00	42759.25
1024.00	42676.55
1025.00	42831.80
1026.00	43090.82
1027.00	43435.66
1028.00	43543.33
1029.00	43674.40
1030.00	43742.27
1031.00	43899.87
1032.00	43985.69
1033.00	43884.26
1034.00	43758.66
1035.00	43670.50
1036.00	43773.48
1037.00	43876.46
1038.00	44018.46
1039.00	44165.13
1040.00	44210.38
1041.00	44303.22
1042.00	44366.41
1043.00	44528.69
1044.00	44619.97
1045.00	44723.74
1046.00	44750.26
1047.00	44648.06
1048.00	44527.13
1049.00	44527.91
1050.00	44787.71
1051.00	44950.77
1052.00	45049.07
1053.00	45121.63
1054.00	45129.43
1055.00	45166.88
1056.00	44921.90
1057.00	45022.55
1058.00	45157.52
1059.00	45377.53
1060.00	45400.93
1061.00	45212.91
1062.00	45098.22
1063.00	45123.19
1064.00	45258.94
1065.00	45539.02
1066.00	45805.06
1067.00	45956.42
1068.00	45954.86
1069.00	45716.12
1070.00	45598.32
1071.00	45510.16
1072.00	45745.77
1073.00	45951.74
1074.00	46171.75
1075.00	46022.73
1076.00	45901.81
1077.00	45923.65
1078.00	46183.45
1079.00	46344.95
1080.00	46223.24
1081.00	46153.02
1082.00	46220.12
1083.00	46056.28
1084.00	45991.53
1085.00	45857.34
1086.00	46221.68
1087.00	46287.21
1088.00	46361.33
1089.00	46629.71
1090.00	46791.99
1091.00	46976.11
1092.00	46869.23
1093.00	46926.18
1094.00	47089.24
1095.00	47139.95
1096.00	47243.71
1097.00	47159.45
1098.00	47178.18
1099.00	47157.11
1100.00	47145.41
1101.00	47093.92
1102.00	47217.97
1103.00	47338.90
1104.00	47433.30
1105.00	47377.12
1106.00	47255.42
1107.00	47269.46
1108.00	47349.82
1109.00	47446.56
1110.00	47700.12
1111.00	47580.75
1112.00	47692.32
1113.00	47398.19
1114.00	47364.64
1115.00	47267.90
1116.00	47278.82
1117.00	47362.30
1118.00	47434.86
1119.00	47498.83
1120.00	47543.30
1121.00	47582.31
1122.00	47729.76
1123.00	47753.17
1124.00	47670.47
1125.00	47381.80
1126.00	47369.32
1127.00	47383.37
1128.00	47544.08
1129.00	47406.77
1130.00	47493.37
1131.00	47592.45
1132.00	47983.32
1133.00	48041.06
1134.00	48023.11
1135.00	47953.68
1136.00	48058.22
1137.00	48159.64
1138.00	48084.75
1139.00	48051.20
1140.00	48126.10
1141.00	48207.23
1142.00	48267.31
1143.00	48273.55
1144.00	48189.29
1145.00	48027.01
1146.00	47924.03
1147.00	48028.57
1148.00	48096.45
1149.00	48209.57
1150.00	48172.13
1151.00	48284.47
1152.00	48522.43
1153.00	48609.81
1154.00	48641.01
1155.00	48283.69
1156.00	48251.70
1157.00	48216.60
1158.00	48278.23
1159.00	48391.36
1160.00	48597.32
1161.00	48981.95
1162.00	49127.84
1163.00	49109.12
1164.00	48911.74
1165.00	48911.74
1166.00	48722.93
1167.00	48818.11
1168.00	48715.13
1169.00	48760.38
1170.00	48522.43
1171.00	48590.30
1172.00	48523.21
1173.00	48603.56
1174.00	48467.81
1175.00	48619.17
1176.00	48574.70
1177.00	48565.34
1178.00	48460.79
1179.00	48579.38
1180.00	48746.34
1181.00	49010.82
1182.00	49133.31
1183.00	49198.84
1184.00	49276.08
1185.00	49246.43
1186.00	49179.34
1187.00	49095.86
1188.00	49045.15
1189.00	49155.15
1190.00	49146.57
1191.00	49260.48
1192.00	49085.72
1193.00	48936.70
1194.00	48908.61
1195.00	49020.18
1196.00	49241.75
1197.00	49201.96
1198.00	49266.72
1199.00	49312.75
1200.00	49297.92
1201.00	49230.83
1202.00	48995.99
1203.00	49158.27
1204.00	49284.66
1205.00	49652.12
1206.00	49720.00
1207.00	49856.53
1208.00	49751.99
1209.00	49531.20
1210.00	49221.47
1211.00	49013.16
1212.00	49155.93
1213.00	49232.39
1214.00	49292.46
1215.00	49187.92
1216.00	49114.58
1217.00	49234.73
1218.00	49337.71
1219.00	49485.17
1220.00	49497.65
1221.00	49353.32
1222.00	49262.04
1223.00	49235.51
1224.00	49239.41
1225.00	49305.73
1226.00	49325.23
1227.00	49553.82
1228.00	49559.28
1229.00	49346.29
1230.00	49160.61
1231.00	49303.38
1232.00	49585.03
1233.00	49788.66
1234.00	49667.73
1235.00	49708.30
1236.00	49810.50
1237.00	49872.92
1238.00	49899.44
1239.00	49950.15
1240.00	50159.24
1241.00	50374.57
1242.00	50450.25
1243.00	50478.33
1244.00	50291.09
1245.00	50273.15
1246.00	50332.44
1247.00	50426.06
1248.00	50502.52
1249.00	50497.06
1250.00	50256.76
1251.00	50122.57
1252.00	49910.36
1253.00	50131.93
1254.00	50060.94
1255.00	49985.26
1256.00	49994.62
1257.00	49936.89
1258.00	50218.53
1259.00	50031.29
1260.00	50266.91
1261.00	50241.16
1262.00	50653.09
1263.00	50845.80
1264.00	51072.83
1265.00	51196.88
1266.00	51229.65
1267.00	51313.12
1268.00	51242.13
1269.00	51206.24
1270.00	50969.85
1271.00	50905.09
1272.00	50960.48
1273.00	51015.10
1274.00	50972.19
1275.00	50892.61
1276.00	50923.04
1277.00	50957.36
1278.00	50848.14
1279.00	50767.00
1280.00	50617.99
1281.00	50837.22
1282.00	50916.79
1283.00	51043.18
1284.00	50948.78
1285.00	51178.15
1286.00	51279.58
1287.00	51278.02
1288.00	51257.73
1289.00	51423.91
1290.00	51525.33
1291.00	51568.24
1292.00	51588.53
1293.00	51618.17
1294.00	51500.37
1295.00	51483.98
1296.00	51469.94
1297.00	51444.19
1298.00	51253.83
1299.00	51163.33
1300.00	50970.63
1301.00	51046.30
1302.00	51040.84
1303.00	51266.31
1304.00	51277.24
1305.00	51426.25
1306.00	51490.23
1307.00	51502.71
1308.00	51465.26
1309.00	51366.96
1310.00	51452.00
1311.00	51593.99
1312.00	51799.18
1313.00	51797.62
1314.00	51833.50
1315.00	51924.78
1316.00	52092.52
1317.00	52091.74
1318.00	51991.10
1319.00	51963.79
1320.00	51940.39
1321.00	51965.35
1322.00	51871.73
1323.00	51933.37
1324.00	52027.77
1325.00	52212.67
1326.00	52254.80
1327.00	52334.38
1328.00	52311.75
1329.00	52528.64
1330.00	52642.55
1331.00	52752.55
1332.00	52510.70
1333.00	52193.17
1334.00	51934.15
1335.00	51782.01
1336.00	51828.04
1337.00	51843.65
1338.00	51833.50
1339.00	51817.90
1340.00	51777.33
1341.00	51989.54
1342.00	52133.87
1343.00	52366.37
1344.00	52334.38
1345.00	52344.52
1346.00	52114.37
1347.00	52140.11
1348.00	52094.08
1349.00	52249.34
1350.00	52098.76
1351.00	52087.06
1352.00	52015.29
1353.00	52144.80
1354.00	52144.80
1355.00	52275.08
1356.00	52323.46
1357.00	52384.31
1358.00	52219.69
1359.00	52353.88
1360.00	52428.00
1361.00	52663.61
1362.00	52489.63
1363.00	52459.99
1364.00	52367.93
1365.00	52479.49
1366.00	52476.37
1367.00	52439.70
1368.00	52477.93
1369.00	52548.93
1370.00	52624.60
1371.00	52623.04
1372.00	52601.98
1373.00	52698.72
1374.00	52836.03
1375.00	52851.64
1376.00	52828.23
1377.00	52638.65
1378.00	52568.43
1379.00	52525.52
1380.00	52501.34
1381.00	52683.12
1382.00	52709.64
1383.00	52618.36
1384.00	52358.56
1385.00	52196.29
1386.00	52095.64
1387.00	52026.99
1388.00	51901.38
1389.00	51981.74
1390.00	52142.45
1391.00	52275.87
1392.00	52205.65
1393.00	52154.94
1394.00	52211.11
1395.00	52330.48
1396.00	52392.89
1397.00	52424.10
1398.00	52332.04
1399.00	52280.55
1400.00	52176.78
1401.00	52073.80
1402.00	52079.26
1403.00	52211.89
1404.00	52317.21
1405.00	52320.34
1406.00	52229.83
1407.00	52363.25
1408.00	52392.89
1409.00	52451.41
1410.00	52547.37
1411.00	52664.39
1412.00	52785.32
1413.00	52907.81
1414.00	52890.65
1415.00	52887.53
1416.00	52753.33
1417.00	52624.60
1418.00	52589.50
1419.00	52566.09
1420.00	52689.36
1421.00	52672.98
1422.00	52690.92
1423.00	52541.91
1424.00	52574.67
1425.00	52582.48
1426.00	52718.23
1427.00	52677.66
1428.00	52666.73
1429.00	52485.73
1430.00	52397.57
1431.00	52359.34
1432.00	52376.51
1433.00	52412.40
1434.00	52260.26
1435.00	52212.67
1436.00	51888.90
1437.00	51867.05
1438.00	51915.42
1439.00	52145.58
1440.00	52129.97
1441.00	52007.48
1442.00	51885.00
1443.00	51797.62
1444.00	51767.97
1445.00	51863.93
1446.00	52156.50
1447.00	52346.08
1448.00	52314.09
1449.00	52274.30
1450.00	52313.31
1451.00	52500.56
1452.00	52534.10
1453.00	52523.96
1454.00	52503.68
1455.00	52334.38
1456.00	52243.10
1457.00	52129.97
1458.00	52204.09
1459.00	52172.10
1460.00	52184.58
1461.00	52051.17
1462.00	52022.31
1463.00	51892.02
1464.00	51989.54
1465.00	51987.98
1466.00	52041.03
1467.00	51958.33
1468.00	51980.18
1469.00	51984.86
1470.00	52072.24
1471.00	52165.86
1472.00	52222.03
1473.00	52077.70
1474.00	51984.86
1475.00	51875.63
1476.00	51886.56
1477.00	51925.56
1478.00	52009.82
1479.00	52174.44
1480.00	51934.93
1481.00	51883.44
1482.00	51811.66
1483.00	51906.84
1484.00	51845.21
1485.00	51680.59
1486.00	51751.59
1487.00	51701.65
1488.00	51666.55
1489.00	51558.10
1490.00	51599.45
1491.00	51715.70
1492.00	51725.84
1493.00	51641.58
1494.00	51582.29
1495.00	51541.72
1496.00	51689.95
1497.00	51612.71
1498.00	51747.68
1499.00	51715.70
1500.00	51970.82
1501.00	51942.73
1502.00	51997.34
1503.00	51831.16
1504.00	51849.89
1505.00	51783.57
1506.00	51604.13
1507.00	51487.88
1508.00	51452.00
1509.00	51547.96
1510.00	51552.64
1511.00	51537.82
1512.00	51599.45
1513.00	51628.32
1514.00	51568.24
1515.00	51565.90
1516.00	51392.70
1517.00	51427.81
1518.00	51319.37
1519.00	51410.65
1520.00	51434.05
1521.00	51533.92
1522.00	51570.58
1523.00	51657.18
1524.00	51597.11
1525.00	51412.21
1526.00	51135.24
1527.00	51042.40
1528.00	51074.39
1529.00	51104.82
1530.00	51178.15
1531.00	51235.11
1532.00	51275.68
1533.00	51339.65
1534.00	51376.32
1535.00	51341.21
1536.00	51295.18
1537.00	51360.72
1538.00	51468.38
1539.00	51568.24
1540.00	51599.45
1541.00	51642.36
1542.00	51637.68
1543.00	51645.48
1544.00	51658.74
1545.00	51663.42
1546.00	51508.95
1547.00	51285.82
1548.00	51086.87
1549.00	51083.75
1550.00	51194.54
1551.00	51220.28
1552.00	51333.41
1553.00	51317.03
1554.00	51350.57
1555.00	51216.38
1556.00	51266.31
1557.00	51185.18
1558.00	51174.25
1559.00	51153.97
1560.00	51023.68
1561.00	50830.19
1562.00	50664.02
1563.00	50781.82
1564.00	50884.81
1565.00	50743.59
1566.00	50596.92
1567.00	50463.51
1568.00	50493.16
1569.00	50406.56
1570.00	50423.72
1571.00	50257.54
1572.00	50211.51
1573.00	50173.28
1574.00	50337.90
1575.00	50385.49
1576.00	50350.38
1577.00	50303.57
1578.00	50390.95
1579.00	50465.85
1580.00	50437.76
1581.00	50394.85
1582.00	50354.29
1583.00	50455.71
1584.00	50557.13
1585.00	50593.02
1586.00	50344.92
1587.00	50169.38
1588.00	50316.84
1589.00	50599.26
1590.00	50617.21
1591.00	50440.10
1592.00	50348.82
1593.00	50337.12
1594.00	50318.40
1595.00	50167.04
1596.00	50284.85
1597.00	50281.73
1598.00	50251.30
1599.00	50060.94
1600.00	50074.98
1601.00	50246.62
1602.00	50295.77
1603.00	50236.48
1604.00	50176.40
1605.00	50224.78
1606.00	50190.45
1607.00	50018.03
1608.00	49780.07
1609.00	49769.15
1610.00	49903.34
1611.00	50052.36
1612.00	50055.48
1613.00	49954.05
1614.00	49973.56
1615.00	49887.74
1616.00	50053.92
1617.00	50027.39
1618.00	50319.96
1619.00	50460.39
1620.00	50653.87
1621.00	50490.04
1622.00	50411.24
1623.00	50260.66
1624.00	50241.94
1625.00	49950.93
1626.00	49728.58
1627.00	49709.08
1628.00	49742.63
1629.00	49861.21
1630.00	49811.28
1631.00	49886.96
1632.00	49987.60
1633.00	49989.94
1634.00	50078.88
1635.00	50003.20
1636.00	49965.76
1637.00	49868.23
1638.00	49697.38
1639.00	49659.15
1640.00	49411.83
1641.00	49365.80
1642.00	49325.23
1643.00	49394.67
1644.00	49365.80
1645.00	49272.18
1646.00	49340.83
1647.00	49379.84
1648.00	49574.11
1649.00	49556.16
1650.00	49726.24
1651.00	49454.74
1652.00	49351.76
1653.00	49292.46
1654.00	49439.14
1655.00	49422.75
1656.00	49247.99
1657.00	49116.14
1658.00	49141.11
1659.00	49043.59
1660.00	49078.69
1661.00	48858.68
1662.00	48920.32
1663.00	49070.11
1664.00	49338.49
1665.00	49418.85
1666.00	49258.13
1667.00	49353.32
1668.00	49397.01
1669.00	49295.58
1670.00	49202.74
1671.00	49014.72
1672.00	49055.29
1673.00	48955.43
1674.00	49114.58
1675.00	49170.75
1676.00	49299.48
1677.00	49348.64
1678.00	49283.10
1679.00	49091.18
1680.00	48774.42
1681.00	48733.07
1682.00	48628.53
1683.00	48623.85
1684.00	48474.06
1685.00	48582.50
1686.00	48676.12
1687.00	48828.26
1688.00	48879.75
1689.00	48852.44
1690.00	48626.19
1691.00	48542.71
1692.00	48324.26
1693.00	48191.63
1694.00	47668.91
1695.00	47565.93
1696.00	47597.91
1697.00	47949.78
1698.00	48101.91
1699.00	48363.27
1700.00	48598.10
1701.00	48814.99
1702.00	48899.25
1703.00	48854.00
1704.00	48761.94
1705.00	48655.06
1706.00	48495.12
1707.00	48406.96
1708.00	48386.67
1709.00	48332.06
1710.00	48154.18
1711.00	47945.87
1712.00	47781.26
1713.00	47754.73
1714.00	47698.56
1715.00	47807.78
1716.00	47759.41
1717.00	47714.16
1718.00	47578.41
1719.00	47576.85
1720.00	47501.17
1721.00	47462.16
1722.00	47587.77
1723.00	47629.12
1724.00	47605.72
1725.00	47475.43
1726.00	47342.02
1727.00	47326.41
1728.00	47136.83
1729.00	47147.75
1730.00	46930.08
1731.00	46714.75
1732.00	46555.60
1733.00	46373.03
1734.00	46471.34
1735.00	46348.07
1736.00	46505.66
1737.00	46444.81
1738.00	46333.24
1739.00	46199.05
1740.00	45978.26
1741.00	45889.32
1742.00	45781.66
1743.00	45752.01
1744.00	45766.84
1745.00	45517.96
1746.00	45361.92
1747.00	45301.85
1748.00	45396.25
1749.00	45402.49
1750.00	45351.00
1751.00	45132.55
1752.00	44891.48
1753.00	44497.48
1754.00	44380.46
1755.00	44436.63
1756.00	44302.44
1757.00	44304.00
1758.00	44138.60
1759.00	44392.94
1760.00	44359.39
1761.00	44407.76
1762.00	44385.14
1763.00	44157.33
1764.00	44172.15
1765.00	44065.27
1766.00	44234.56
1767.00	44018.46
1768.00	43898.31
1769.00	43850.72
1770.00	43874.90
1771.00	43771.14
1772.00	43555.03
1773.00	43388.07
1774.00	43377.15
1775.00	43274.16
1776.00	43300.69
1777.00	43175.86
1778.00	43190.69
1779.00	43073.66
1780.00	42973.02
1781.00	42859.89
1782.00	42752.23
1783.00	42639.10
1784.00	42468.24
1785.00	42420.65
1786.00	42259.93
1787.00	42359.02
1788.00	42114.04
1789.00	42046.94
1790.00	41606.92
1791.00	41404.08
1792.00	41134.14
1793.00	40925.05
1794.00	40743.27
1795.00	40616.10
1796.00	40460.06
1797.00	40449.14
1798.00	40356.30
1799.00	40421.83
1800.00	40188.56
1801.00	40018.48
1802.00	39764.92
1803.00	39494.20
1804.00	39192.27
1805.00	39067.44
1806.00	39060.42
1807.00	39072.12
1808.00	38957.44
1809.00	38880.98
1810.00	38879.42
1811.00	38828.71
1812.00	38781.90
1813.00	38575.93
1814.00	38371.52
1815.00	38274.00
1816.00	38188.96
1817.00	38131.23
1818.00	38083.64
1819.00	38043.07
1820.00	37837.88
1821.00	37540.63
1822.00	37447.79
1823.00	37411.90
1824.00	37246.51
1825.00	36889.18
1826.00	36587.25
1827.00	36429.66
1828.00	36315.75
1829.00	36380.51
1830.00	36014.60
1831.00	35973.25
1832.00	35740.76
1833.00	35838.28
1834.00	35618.27
1835.00	35486.42
1836.00	35135.34
1837.00	34941.86
1838.00	34637.59
1839.00	34445.66
1840.00	34053.23
1841.00	33896.42
1842.00	33784.07
1843.00	33613.21
1844.00	33510.23
1845.00	33411.15
1846.00	33098.30
1847.00	32548.27
1848.00	32265.07
1849.00	32120.73
1850.00	32151.94
1851.00	31896.04
1852.00	31911.64
1853.00	31911.64
1854.00	31837.53
1855.00	31569.93
1856.00	31250.83
1857.00	31161.11
1858.00	31109.62
1859.00	30948.90
1860.00	30756.98
1861.00	30734.35
1862.00	30583.78
1863.00	30469.87
1864.00	30210.07
1865.00	30092.27
1866.00	29898.00
1867.00	29726.36
1868.00	29360.46
1869.00	29036.69
1870.00	28752.70
1871.00	28695.75
1872.00	28518.65
1873.00	28364.95
1874.00	28252.61
1875.00	28100.47
1876.00	27870.32
1877.00	27634.71
1878.00	27507.54
1879.00	27367.88
1880.00	27141.63
1881.00	26864.67
1882.00	26709.41
1883.00	26479.26
1884.00	26540.89
1885.00	26383.30
1886.00	26250.67
1887.00	25879.30
1888.00	25717.81
1889.00	25667.09
1890.00	25499.36
1891.00	25336.30
1892.00	25050.75
1893.00	25043.73
1894.00	24889.26
1895.00	24720.74
1896.00	24441.43
1897.00	24215.96
1898.00	24066.17
1899.00	23954.60
1900.00	23970.99
1901.00	23884.39
1902.00	23807.15
1903.00	23657.35
1904.00	23623.81
1905.00	23529.41
1906.00	23321.10
1907.00	22972.36
1908.00	22738.30
1909.00	22565.88
1910.00	22596.31
1911.00	22419.99
1912.00	22214.02
1913.00	21966.71
1914.00	21851.24
1915.00	21722.51
1916.00	21599.24
1917.00	21333.98
1918.00	21268.45
1919.00	21085.89
1920.00	21100.71
1921.00	20905.66
1922.00	20882.26
1923.00	20620.12
1924.00	20531.18
1925.00	20324.43
1926.00	20155.13
1927.00	19792.35
1928.00	19605.11
1929.00	19520.07
1930.00	19584.04
1931.00	19518.51
1932.00	19296.94
1933.00	19241.54
1934.00	19090.19
1935.00	19116.72
1936.00	18883.44
1937.00	18814.79
1938.00	18592.44
1939.00	18470.73
1940.00	18310.79
1941.00	18231.99
1942.00	18019.78
1943.00	17882.47
1944.00	17763.11
1945.00	17727.22
1946.00	17593.03
1947.00	17454.94
1948.00	17313.72
1949.00	17108.54
1950.00	16976.69
1951.00	16856.54
1952.00	16783.98
1953.00	16703.62
1954.00	16677.10
1955.00	16651.35
1956.00	16478.93
1957.00	16359.56
1958.00	16182.46
1959.00	16124.73
1960.00	16029.55
1961.00	16010.82
1962.00	15967.13
1963.00	15759.61
1964.00	15495.13
1965.00	15285.26
1966.00	15193.20
1967.00	15179.93
1968.00	15214.26
1969.00	15178.37
1970.00	15111.28
1971.00	14908.43
1972.00	14673.60
1973.00	14455.93
1974.00	14340.46
1975.00	14287.41
1976.00	14293.65
1977.00	14209.39
1978.00	14145.42
1979.00	13949.59
1980.00	13875.48
1981.00	13744.41
1982.00	13736.60
1983.00	13674.97
1984.00	13572.77
1985.00	13509.57
1986.00	13369.92
1987.00	13364.46
1988.00	13159.27
1989.00	13111.68
1990.00	13021.96
1991.00	12956.43
1992.00	12859.68
1993.00	12680.24
1994.00	12649.04
1995.00	12591.30
1996.00	12567.12
1997.00	12465.69
1998.00	12405.62
1999.00	12287.03
2000.00	12255.83
2001.00	12219.16
2002.00	12285.47
2003.00	12161.42
2004.00	12003.05
2005.00	11860.27
2006.00	11800.98
2007.00	11726.86
2008.00	11646.51
2009.00	11601.26
2010.00	11508.41
2011.00	11375.78
2012.00	11325.07
2013.00	11283.72
2014.00	11214.29
2015.00	11208.05
2016.00	11097.26
2017.00	11108.96
2018.00	10986.47
2019.00	10988.82
2020.00	10889.73
2021.00	10850.72
2022.00	10722.77
2023.00	10751.64
2024.00	10662.70
2025.00	10649.44
2026.00	10524.61
2027.00	10519.93
2028.00	10477.80
2029.00	10423.97
2030.00	10285.09
2031.00	10150.12
2032.00	10082.25
2033.00	10079.91
2034.00	10093.95
2035.00	10045.58
2036.00	9951.18
2037.00	9956.64
2038.00	9906.71
2039.00	9877.84
2040.00	9711.66
2041.00	9644.57
2042.00	9577.47
2043.00	9568.11
2044.00	9551.73
2045.00	9493.99
2046.00	9442.50
2047.00	9352.78
>>>>>End Processed Spectral Data<<<<<
