SpectraSuite Data File
++++++++++++++++++++++++++++++++++++
Date: Thu Nov 16 14:00:36 EST 2017
User: cheriyan
Dark Spectrum Present: No
Reference Spectrum Present: No
Number of Sampled Component Spectra: 1
Spectrometers: USB2+H05261
Integration Time (usec): 100000 (USB2+H05261)
Spectra Averaged: 1 (USB2+H05261)
Boxcar Smoothing: 1 (USB2+H05261)
Correct for Electrical Dark: No (USB2+H05261)
Strobe/Lamp Enabled: No (USB2+H05261)
Correct for Detector Non-linearity: No (USB2+H05261)
Correct for Stray Light: No (USB2+H05261)
Number of Pixels in Processed Spectrum: 2048
>>>>>Begin Processed Spectral Data<<<<<
0.00	346.40
1.00	346.40
2.00	303.49
3.00	275.40
4.00	256.68
5.00	290.23
6.00	288.67
7.00	287.89
8.00	273.06
9.00	285.55
10.00	277.74
11.00	248.10
12.00	223.91
13.00	215.33
14.00	241.86
15.00	261.36
16.00	268.38
17.00	286.33
18.00	280.08
19.00	269.16
20.00	274.62
21.00	290.23
22.00	320.65
23.00	346.40
24.00	488.39
25.00	632.72
26.00	775.50
27.00	831.67
28.00	859.76
29.00	868.34
30.00	849.61
31.00	858.20
32.00	857.42
33.00	855.86
34.00	878.48
35.00	862.10
36.00	878.48
37.00	869.12
38.00	901.89
39.00	890.96
40.00	890.18
41.00	897.21
42.00	908.91
43.00	929.97
44.00	939.34
45.00	963.52
46.00	946.36
47.00	949.48
48.00	950.26
49.00	1003.31
50.00	994.73
51.00	989.27
52.00	995.51
53.00	1006.43
54.00	1004.87
55.00	968.20
56.00	944.80
57.00	957.28
58.00	968.98
59.00	976.00
60.00	962.74
61.00	978.34
62.00	1012.67
63.00	1032.96
64.00	1054.02
65.00	1057.14
66.00	1068.84
67.00	1022.81
68.00	1000.97
69.00	999.41
70.00	1036.86
71.00	1064.94
72.00	1043.88
73.00	1028.28
74.00	1036.86
75.00	1054.80
76.00	1050.90
77.00	1042.32
78.00	1078.21
79.00	1067.28
80.00	1075.87
81.00	1060.26
82.00	1105.51
83.00	1138.28
84.00	1149.20
85.00	1133.60
86.00	1111.75
87.00	1117.22
88.00	1104.73
89.00	1096.93
90.00	1107.07
91.00	1137.50
92.00	1151.54
93.00	1177.29
94.00	1174.17
95.00	1191.33
96.00	1203.82
97.00	1249.85
98.00	1262.33
99.00	1240.48
100.00	1232.68
101.00	1225.66
102.00	1206.16
103.00	1223.32
104.00	1218.64
105.00	1232.68
106.00	1198.35
107.00	1235.02
108.00	1278.71
109.00	1299.78
110.00	1274.03
111.00	1281.83
112.00	1318.50
113.00	1331.76
114.00	1316.94
115.00	1285.73
116.00	1284.17
117.00	1285.73
118.00	1309.92
119.00	1338.79
120.00	1338.79
121.00	1343.47
122.00	1367.65
123.00	1401.98
124.00	1419.92
125.00	1425.39
126.00	1425.39
127.00	1396.52
128.00	1378.58
129.00	1408.22
130.00	1468.30
131.00	1499.50
132.00	1465.18
133.00	1429.29
134.00	1436.31
135.00	1462.83
136.00	1462.83
137.00	1483.12
138.00	1473.76
139.00	1500.28
140.00	1473.76
141.00	1519.01
142.00	1572.84
143.00	1602.49
144.00	1593.12
145.00	1551.78
146.00	1536.17
147.00	1528.37
148.00	1532.27
149.00	1575.18
150.00	1614.97
151.00	1624.33
152.00	1613.41
153.00	1607.95
154.00	1668.80
155.00	1667.24
156.00	1657.88
157.00	1618.87
158.00	1664.90
159.00	1696.89
160.00	1713.27
161.00	1701.57
162.00	1732.78
163.00	1741.36
164.00	1736.68
165.00	1715.61
166.00	1722.63
167.00	1742.92
168.00	1762.42
169.00	1804.55
170.00	1782.71
171.00	1781.15
172.00	1769.44
173.00	1845.12
174.00	1850.58
175.00	1888.03
176.00	1862.29
177.00	1898.17
178.00	1901.30
179.00	1934.84
180.00	1929.38
181.00	1945.77
182.00	1949.67
183.00	1973.07
184.00	1942.64
185.00	1936.40
186.00	1957.47
187.00	1966.05
188.00	1981.65
189.00	1958.25
190.00	1999.60
191.00	2024.56
192.00	2053.43
193.00	2064.35
194.00	2041.73
195.00	2041.73
196.00	2085.42
197.00	2125.99
198.00	2133.01
199.00	2113.50
200.00	2095.56
201.00	2122.09
202.00	2126.77
203.00	2173.58
204.00	2162.66
205.00	2220.39
206.00	2234.43
207.00	2271.88
208.00	2229.75
209.00	2239.11
210.00	2246.91
211.00	2264.86
212.00	2227.41
213.00	2233.65
214.00	2256.28
215.00	2317.13
216.00	2345.22
217.00	2358.48
218.00	2379.54
219.00	2385.79
220.00	2409.19
221.00	2395.93
222.00	2403.73
223.00	2406.07
224.00	2446.64
225.00	2467.70
226.00	2484.09
227.00	2477.85
228.00	2478.63
229.00	2484.87
230.00	2522.32
231.00	2510.61
232.00	2511.39
233.00	2494.23
234.00	2530.12
235.00	2582.39
236.00	2618.28
237.00	2645.59
238.00	2661.97
239.00	2684.59
240.00	2735.31
241.00	2743.11
242.00	2775.10
243.00	2765.73
244.00	2817.22
245.00	2851.55
246.00	2861.69
247.00	2877.30
248.00	2844.53
249.00	2827.37
250.00	2793.04
251.00	2858.57
252.00	2953.76
253.00	2993.55
254.00	2978.72
255.00	2992.76
256.00	3015.39
257.00	3041.92
258.00	3086.39
259.00	3077.02
260.00	3133.20
261.00	3131.64
262.00	3167.52
263.00	3155.82
264.00	3155.04
265.00	3197.17
266.00	3197.95
267.00	3251.00
268.00	3282.21
269.00	3326.68
270.00	3329.80
271.00	3332.92
272.00	3395.34
273.00	3394.56
274.00	3420.30
275.00	3409.38
276.00	3444.49
277.00	3424.20
278.00	3422.64
279.00	3442.15
280.00	3472.57
281.00	3493.64
282.00	3514.70
283.00	3581.02
284.00	3645.77
285.00	3697.27
286.00	3707.41
287.00	3652.80
288.00	3602.08
289.00	3588.04
290.00	3601.30
291.00	3647.33
292.00	3634.85
293.00	3669.96
294.00	3698.05
295.00	3752.66
296.00	3804.15
297.00	3810.39
298.00	3830.68
299.00	3827.56
300.00	3831.46
301.00	3816.63
302.00	3790.11
303.00	3769.82
304.00	3767.48
305.00	3822.09
306.00	3857.98
307.00	3907.13
308.00	3893.87
309.00	3909.47
310.00	3854.86
311.00	3889.19
312.00	3881.39
313.00	3984.37
314.00	3946.92
315.00	3957.85
316.00	3985.15
317.00	4028.06
318.00	4074.87
319.00	4025.72
320.00	4019.48
321.00	3977.35
322.00	4017.92
323.00	4083.45
324.00	4191.90
325.00	4255.09
326.00	4305.03
327.00	4360.42
328.00	4363.54
329.00	4379.92
330.00	4347.16
331.00	4346.37
332.00	4307.37
333.00	4316.73
334.00	4358.86
335.00	4420.49
336.00	4441.56
337.00	4386.16
338.00	4409.57
339.00	4450.14
340.00	4556.24
341.00	4606.95
342.00	4593.69
343.00	4606.17
344.00	4600.71
345.00	4632.70
346.00	4631.14
347.00	4632.70
348.00	4656.89
349.00	4753.63
350.00	4805.12
351.00	4830.09
352.00	4832.43
353.00	4839.45
354.00	4888.60
355.00	4855.05
356.00	4844.91
357.00	4843.35
358.00	4831.65
359.00	4925.27
360.00	4974.42
361.00	5031.37
362.00	5036.05
363.00	5058.68
364.00	5061.80
365.00	5009.53
366.00	4983.00
367.00	5026.69
368.00	5113.29
369.00	5137.48
370.00	5196.77
371.00	5125.77
372.00	5116.41
373.00	5075.84
374.00	5144.50
375.00	5249.04
376.00	5296.63
377.00	5353.59
378.00	5376.21
379.00	5421.46
380.00	5441.75
381.00	5511.96
382.00	5558.77
383.00	5644.59
384.00	5653.95
385.00	5646.93
386.00	5667.22
387.00	5764.74
388.00	5817.01
389.00	5849.00
390.00	5825.59
391.00	5880.99
392.00	5923.90
393.00	5966.81
394.00	6029.22
395.00	6083.05
396.00	6178.23
397.00	6186.82
398.00	6225.83
399.00	6190.72
400.00	6226.61
401.00	6257.03
402.00	6299.94
403.00	6353.77
404.00	6454.42
405.00	6459.10
406.00	6561.30
407.00	6523.85
408.00	6530.09
409.00	6451.30
410.00	6445.84
411.00	6550.38
412.00	6585.49
413.00	6589.39
414.00	6556.62
415.00	6530.87
416.00	6539.46
417.00	6558.96
418.00	6644.78
419.00	6724.36
420.00	6736.84
421.00	6711.88
422.00	6670.53
423.00	6651.02
424.00	6737.62
425.00	6834.36
426.00	6888.98
427.00	6850.75
428.00	6754.79
429.00	6800.04
430.00	6849.19
431.00	6884.30
432.00	6799.26
433.00	6761.03
434.00	6788.33
435.00	6825.00
436.00	6843.73
437.00	6924.87
438.00	6932.67
439.00	6988.06
440.00	7036.43
441.00	7176.08
442.00	7212.75
443.00	7140.19
444.00	7133.17
445.00	7184.66
446.00	7203.39
447.00	7245.52
448.00	7240.84
449.00	7276.73
450.00	7360.98
451.00	7453.05
452.00	7534.96
453.00	7524.82
454.00	7522.48
455.00	7605.18
456.00	7695.68
457.00	7760.44
458.00	7740.15
459.00	7701.92
460.00	7724.55
461.00	7767.46
462.00	7730.01
463.00	7735.47
464.00	7759.66
465.00	7850.94
466.00	7840.79
467.00	7960.16
468.00	7998.39
469.00	8102.93
470.00	8109.96
471.00	8198.12
472.00	8211.38
473.00	8255.07
474.00	8305.00
475.00	8396.28
476.00	8390.82
477.00	8425.15
478.00	8482.10
479.00	8578.84
480.00	8516.43
481.00	8514.87
482.00	8438.41
483.00	8502.39
484.00	8547.64
485.00	8697.43
486.00	8765.31
487.00	8784.81
488.00	8766.87
489.00	8833.18
490.00	8786.37
491.00	8808.22
492.00	8816.80
493.00	8908.08
494.00	9000.14
495.00	8961.91
496.00	8972.05
497.00	9011.06
498.00	9167.88
499.00	9250.58
500.00	9224.05
501.00	9220.93
502.00	9252.92
503.00	9341.08
504.00	9388.67
505.00	9397.25
506.00	9435.48
507.00	9537.68
508.00	9629.74
509.00	9589.96
510.00	9598.54
511.00	9645.35
512.00	9820.11
513.00	9848.97
514.00	9902.81
515.00	9886.42
516.00	9880.18
517.00	9823.23
518.00	9856.78
519.00	9864.58
520.00	9980.04
521.00	9977.70
522.00	10001.89
523.00	10080.69
524.00	10179.77
525.00	10203.18
526.00	10124.38
527.00	10167.29
528.00	10241.40
529.00	10320.98
530.00	10325.66
531.00	10356.09
532.00	10348.29
533.00	10312.40
534.00	10342.05
535.00	10391.20
536.00	10416.94
537.00	10384.96
538.00	10387.30
539.00	10443.47
540.00	10537.87
541.00	10585.46
542.00	10595.61
543.00	10684.55
544.00	10800.79
545.00	10952.15
546.00	10929.52
547.00	10980.23
548.00	10987.25
549.00	11147.97
550.00	11152.65
551.00	11210.39
552.00	11266.56
553.00	11315.71
554.00	11325.85
555.00	11297.77
556.00	11399.97
557.00	11512.32
558.00	11612.18
559.00	11708.92
560.00	11772.11
561.00	11761.97
562.00	11752.61
563.00	11865.74
564.00	12019.43
565.00	12152.84
566.00	12201.99
567.00	12202.77
568.00	12136.46
569.00	12074.04
570.00	12148.16
571.00	12283.13
572.00	12470.37
573.00	12496.90
574.00	12517.97
575.00	12482.86
576.00	12645.13
577.00	12758.26
578.00	12932.24
579.00	12961.11
580.00	13130.41
581.00	13206.08
582.00	13382.40
583.00	13435.46
584.00	13523.62
585.00	13659.37
586.00	13848.17
587.00	13862.21
588.00	13761.57
589.00	13760.79
590.00	13877.04
591.00	14072.08
592.00	14238.26
593.00	14462.95
594.00	14700.90
595.00	14778.14
596.00	14888.93
597.00	14921.70
598.00	14973.19
599.00	15126.10
600.00	15256.39
601.00	15420.23
602.00	15551.30
603.00	15668.33
604.00	15760.39
605.00	15963.23
606.00	16070.12
607.00	16237.86
608.00	16244.88
609.00	16319.00
610.00	16408.72
611.00	16418.86
612.00	16575.67
613.00	16773.06
614.00	16938.46
615.00	16970.44
616.00	17050.02
617.00	17189.67
618.00	17384.72
619.00	17516.57
620.00	17688.99
621.00	17927.72
622.00	18085.32
623.00	18392.71
624.00	18466.83
625.00	18618.18
626.00	18487.11
627.00	18653.29
628.00	18790.60
629.00	19192.39
630.00	19356.23
631.00	19473.26
632.00	19413.96
633.00	19747.88
634.00	19963.21
635.00	20194.92
636.00	20286.98
637.00	20459.40
638.00	20560.05
639.00	20683.31
640.00	20779.28
641.00	20991.48
642.00	21136.60
643.00	21322.28
644.00	21412.00
645.00	21436.19
646.00	21491.58
647.00	21672.58
648.00	21846.56
649.00	22083.73
650.00	22295.16
651.00	22547.94
652.00	22618.94
653.00	22706.32
654.00	22745.33
655.00	23104.99
656.00	23277.41
657.00	23395.21
658.00	23448.27
659.00	23624.59
660.00	23940.56
661.00	23984.25
662.00	24234.69
663.00	24378.24
664.00	24730.88
665.00	24714.50
666.00	24879.11
667.00	24960.25
668.00	25265.30
669.00	25400.27
670.00	25454.11
671.00	25511.84
672.00	25561.77
673.00	25732.63
674.00	25916.75
675.00	26067.33
676.00	26249.89
677.00	26424.65
678.00	26627.49
679.00	26792.89
680.00	26887.29
681.00	27080.00
682.00	27393.63
683.00	27589.45
684.00	27801.66
685.00	27787.62
686.00	28045.08
687.00	28233.88
688.00	28467.16
689.00	28593.54
690.00	28693.41
691.00	28876.75
692.00	28900.93
693.00	28991.44
694.00	29174.78
695.00	29514.94
696.00	29665.51
697.00	29850.41
698.00	30027.51
699.00	30213.20
700.00	30164.04
701.00	30370.79
702.00	30533.85
703.00	30865.42
704.00	31126.78
705.00	31414.67
706.00	31711.14
707.00	31787.60
708.00	31844.55
709.00	31914.76
710.00	31973.28
711.00	32225.28
712.00	32290.81
713.00	32444.51
714.00	32617.71
715.00	32812.75
716.00	32836.94
717.00	33087.37
718.00	33161.49
719.00	33307.38
720.00	33248.09
721.00	33227.81
722.00	33433.77
723.00	33534.42
724.00	33756.77
725.00	33759.11
726.00	33861.31
727.00	34097.70
728.00	34122.67
729.00	34171.82
730.00	34141.39
731.00	34460.49
732.00	34592.34
733.00	34618.08
734.00	34468.29
735.00	34475.31
736.00	34751.49
737.00	34998.81
738.00	35305.42
739.00	35431.81
740.00	35706.43
741.00	35846.86
742.00	35906.16
743.00	35907.72
744.00	36035.67
745.00	36364.90
746.00	36517.04
747.00	36559.95
748.00	36609.10
749.00	36775.28
750.00	37053.80
751.00	37017.13
752.00	37202.03
753.00	37072.53
754.00	37246.51
755.00	37287.07
756.00	37534.39
757.00	37655.32
758.00	37805.89
759.00	37858.17
760.00	37944.76
761.00	38075.05
762.00	38413.65
763.00	38583.73
764.00	38736.65
765.00	38652.39
766.00	38859.13
767.00	38946.51
768.00	39069.00
769.00	39179.79
770.00	39342.06
771.00	39629.95
772.00	39936.56
773.00	40109.76
774.00	40091.82
775.00	40035.64
776.00	40091.04
777.00	40360.20
778.00	40484.25
779.00	40712.06
780.00	40630.92
781.00	40754.97
782.00	40795.54
783.00	41130.23
784.00	41217.61
785.00	41296.41
786.00	41351.02
787.00	41586.64
788.00	41895.59
789.00	42178.01
790.00	42240.43
791.00	42169.43
792.00	42103.12
793.00	42316.89
794.00	42614.91
795.00	42703.85
796.00	42678.89
797.00	42717.90
798.00	42939.47
799.00	43262.46
800.00	43367.79
801.00	43579.99
802.00	43547.23
803.00	43569.85
804.00	43649.43
805.00	44002.07
806.00	44302.44
807.00	44360.95
808.00	44198.68
809.00	44255.63
810.00	44305.56
811.00	44491.24
812.00	44650.40
813.00	44769.77
814.00	45138.79
815.00	45418.88
816.00	45644.35
817.00	45614.70
818.00	45433.70
819.00	45477.39
820.00	45446.96
821.00	45615.48
822.00	45691.16
823.00	45871.38
824.00	45835.49
825.00	45950.96
826.00	46051.60
827.00	46367.57
828.00	46497.08
829.00	46571.98
830.00	46621.91
831.00	46652.34
832.00	46832.56
833.00	46800.57
834.00	46931.64
835.00	47001.08
836.00	47254.64
837.00	47573.73
838.00	47714.94
839.00	47785.94
840.00	47924.03
841.00	48046.52
842.00	48354.69
843.00	48421.00
844.00	48484.98
845.00	48584.06
846.00	48718.25
847.00	48992.87
848.00	48960.89
849.00	49024.08
850.00	48876.63
851.00	49073.23
852.00	49113.02
853.00	49287.00
854.00	49227.71
855.00	49332.25
856.00	49268.28
857.00	49340.05
858.00	49444.60
859.00	49647.44
860.00	49787.10
861.00	49767.59
862.00	49944.69
863.00	50068.74
864.00	50056.26
865.00	50054.70
866.00	50014.91
867.00	50244.28
868.00	50259.10
869.00	50410.46
870.00	50386.27
871.00	50393.29
872.00	50564.93
873.00	50776.36
874.00	51078.29
875.00	51010.42
876.00	51120.42
877.00	51021.34
878.00	51224.18
879.00	51295.96
880.00	51426.25
881.00	51382.56
882.00	51302.20
883.00	51390.36
884.00	51435.61
885.00	51532.36
886.00	51583.85
887.00	51730.52
888.00	51792.15
889.00	51841.31
890.00	51746.12
891.00	51739.10
892.00	51842.09
893.00	51857.69
894.00	51993.44
895.00	51873.29
896.00	52058.20
897.00	52034.01
898.00	52183.80
899.00	52152.60
900.00	52239.20
901.00	52340.62
902.00	52526.30
903.00	52613.68
904.00	52836.81
905.00	53070.87
906.00	53155.91
907.00	53033.42
908.00	52778.30
909.00	52954.62
910.00	53015.47
911.00	53227.68
912.00	53130.94
913.00	53141.86
914.00	53113.00
915.00	53042.78
916.00	53092.71
917.00	52953.84
918.00	53094.27
919.00	53024.06
920.00	53149.67
921.00	53060.72
922.00	53226.90
923.00	53259.67
924.00	53426.63
925.00	53595.15
926.00	53844.80
927.00	53926.72
928.00	53801.89
929.00	53847.14
930.00	53879.13
931.00	54003.96
932.00	54054.67
933.00	54047.65
934.00	54039.07
935.00	54105.38
936.00	54280.14
937.00	54372.20
938.00	54260.64
939.00	54285.61
940.00	54362.06
941.00	54453.34
942.00	54497.03
943.00	54468.17
944.00	54518.10
945.00	54558.67
946.00	54723.29
947.00	54773.22
948.00	54796.62
949.00	54742.01
950.00	54810.67
951.00	54901.95
952.00	54913.65
953.00	54976.84
954.00	54960.46
955.00	55067.34
956.00	55087.63
957.00	55139.12
958.00	55276.43
959.00	55427.01
960.00	55453.53
961.00	55377.08
962.00	55319.34
963.00	55420.76
964.00	55628.29
965.00	55702.41
966.00	55813.98
967.00	55893.55
968.00	56014.48
969.00	56048.03
970.00	56092.50
971.00	56253.22
972.00	56464.64
973.00	56427.98
974.00	56405.35
975.00	56387.41
976.00	56349.18
977.00	56331.23
978.00	56249.31
979.00	56224.35
980.00	56200.94
981.00	56312.51
982.00	56371.80
983.00	56436.56
984.00	56452.94
985.00	56537.20
986.00	56502.09
987.00	56377.26
988.00	56481.81
989.00	56491.95
990.00	56761.11
991.00	56743.17
992.00	56818.06
993.00	56679.97
994.00	56866.44
995.00	57076.30
996.00	57283.05
997.00	57481.22
998.00	57614.63
999.00	57633.35
1000.00	57535.83
1001.00	57442.99
1002.00	57385.25
1003.00	57303.34
1004.00	57383.69
1005.00	57444.55
1006.00	57498.38
1007.00	57425.04
1008.00	57472.63
1009.00	57467.95
1010.00	57538.17
1011.00	57531.15
1012.00	57674.70
1013.00	57712.15
1014.00	57877.55
1015.00	57923.58
1016.00	57913.44
1017.00	57961.81
1018.00	58008.62
1019.00	58135.79
1020.00	58092.10
1021.00	58085.07
1022.00	58103.80
1023.00	57998.48
1024.00	57928.26
1025.00	57894.71
1026.00	58039.82
1027.00	58154.51
1028.00	58227.07
1029.00	58156.07
1030.00	58233.31
1031.00	58374.52
1032.00	58621.84
1033.00	58679.57
1034.00	58652.26
1035.00	58664.75
1036.00	58699.86
1037.00	58754.47
1038.00	58690.49
1039.00	58594.53
1040.00	58538.36
1041.00	58587.51
1042.00	58688.93
1043.00	58791.14
1044.00	58985.40
1045.00	59178.10
1046.00	59293.57
1047.00	59274.85
1048.00	59274.85
1049.00	59144.56
1050.00	59248.32
1051.00	59184.35
1052.00	59343.50
1053.00	59289.67
1054.00	59302.15
1055.00	59291.23
1056.00	59295.91
1057.00	59263.92
1058.00	59368.47
1059.00	59373.93
1060.00	59576.00
1061.00	59545.57
1062.00	59577.56
1063.00	59458.19
1064.00	59469.11
1065.00	59469.89
1066.00	59632.95
1067.00	59707.07
1068.00	59793.67
1069.00	59757.00
1070.00	59800.69
1071.00	59825.65
1072.00	59834.24
1073.00	59801.47
1074.00	59895.09
1075.00	59946.58
1076.00	59991.05
1077.00	59958.28
1078.00	59999.63
1079.00	59952.82
1080.00	60061.27
1081.00	60161.91
1082.00	60292.98
1083.00	60278.16
1084.00	60276.60
1085.00	60285.18
1086.00	60221.98
1087.00	60218.86
1088.00	60243.83
1089.00	60434.19
1090.00	60483.34
1091.00	60589.45
1092.00	60531.71
1093.00	60511.43
1094.00	60470.86
1095.00	60468.52
1096.00	60549.66
1097.00	60535.62
1098.00	60545.76
1099.00	60518.45
1100.00	60597.25
1101.00	60667.47
1102.00	60674.49
1103.00	60609.73
1104.00	60605.05
1105.00	60681.51
1106.00	60831.30
1107.00	60898.40
1108.00	60979.54
1109.00	60954.57
1110.00	60981.10
1111.00	60893.72
1112.00	60935.85
1113.00	60949.11
1114.00	60974.86
1115.00	60932.73
1116.00	60851.59
1117.00	60862.51
1118.00	60870.31
1119.00	60896.06
1120.00	60808.68
1121.00	60798.54
1122.00	60851.59
1123.00	60970.96
1124.00	60987.34
1125.00	60999.82
1126.00	61027.13
1127.00	61187.06
1128.00	61224.51
1129.00	61186.28
1130.00	61070.82
1131.00	61080.18
1132.00	61148.06
1133.00	61131.67
1134.00	61055.21
1135.00	61052.09
1136.00	61079.40
1137.00	61155.86
1138.00	61246.36
1139.00	61332.96
1140.00	61386.79
1141.00	61379.77
1142.00	61386.01
1143.00	61325.16
1144.00	61350.90
1145.00	61405.51
1146.00	61561.55
1147.00	61588.08
1148.00	61602.12
1149.00	61517.08
1150.00	61422.68
1151.00	61361.82
1152.00	61354.80
1153.00	61315.79
1154.00	61291.61
1155.00	61353.24
1156.00	61374.31
1157.00	61425.80
1158.00	61375.87
1159.00	61396.93
1160.00	61481.19
1161.00	61595.10
1162.00	61701.98
1163.00	61633.33
1164.00	61462.47
1165.00	61471.05
1166.00	61570.91
1167.00	61724.61
1168.00	61687.94
1169.00	61605.24
1170.00	61560.77
1171.00	61664.53
1172.00	61676.24
1173.00	61655.95
1174.00	61635.67
1175.00	61713.69
1176.00	61762.06
1177.00	61717.59
1178.00	61654.39
1179.00	61677.80
1180.00	61680.92
1181.00	61636.45
1182.00	61675.46
1183.00	61659.07
1184.00	61718.37
1185.00	61733.97
1186.00	61733.97
1187.00	61801.85
1188.00	61709.78
1189.00	61749.57
1190.00	61697.30
1191.00	61690.28
1192.00	61559.99
1193.00	61447.64
1194.00	61470.27
1195.00	61561.55
1196.00	61640.35
1197.00	61618.50
1198.00	61659.07
1199.00	61758.94
1200.00	61790.92
1201.00	61797.16
1202.00	61710.56
1203.00	61694.96
1204.00	61589.64
1205.00	61620.06
1206.00	61657.51
1207.00	61885.32
1208.00	61941.50
1209.00	62006.25
1210.00	62067.11
1211.00	62049.16
1212.00	62084.27
1213.00	61978.17
1214.00	61912.63
1215.00	61827.59
1216.00	61757.38
1217.00	61743.33
1218.00	61764.40
1219.00	61808.87
1220.00	61969.58
1221.00	61968.02
1222.00	62032.78
1223.00	61968.80
1224.00	62042.92
1225.00	62031.22
1226.00	62070.23
1227.00	61971.14
1228.00	61892.35
1229.00	61798.72
1230.00	61842.41
1231.00	61904.83
1232.00	62004.69
1233.00	62102.21
1234.00	62136.54
1235.00	62126.40
1236.00	62104.55
1237.00	62087.39
1238.00	62133.42
1239.00	62284.78
1240.00	62397.90
1241.00	62487.62
1242.00	62415.07
1243.00	62323.00
1244.00	62165.41
1245.00	62120.16
1246.00	62166.97
1247.00	62333.93
1248.00	62404.14
1249.00	62418.19
1250.00	62367.48
1251.00	62400.24
1252.00	62460.32
1253.00	62617.13
1254.00	62674.87
1255.00	62711.53
1256.00	62692.81
1257.00	62745.86
1258.00	62743.52
1259.00	62596.85
1260.00	62454.07
1261.00	62500.11
1262.00	62566.42
1263.00	62655.36
1264.00	62645.22
1265.00	62707.63
1266.00	62647.56
1267.00	62653.02
1268.00	62749.76
1269.00	62874.59
1270.00	62897.22
1271.00	62908.92
1272.00	63016.58
1273.00	62976.79
1274.00	62874.59
1275.00	62746.64
1276.00	62787.21
1277.00	62795.79
1278.00	62849.63
1279.00	62931.54
1280.00	62961.19
1281.00	62962.75
1282.00	63037.65
1283.00	63186.66
1284.00	63206.95
1285.00	63255.32
1286.00	63196.80
1287.00	63136.73
1288.00	62983.82
1289.00	62952.61
1290.00	62965.09
1291.00	62973.67
1292.00	63037.65
1293.00	63137.51
1294.00	63195.24
1295.00	63184.32
1296.00	63103.18
1297.00	63028.29
1298.00	63003.32
1299.00	63088.36
1300.00	63254.54
1301.00	63333.34
1302.00	63300.57
1303.00	63211.63
1304.00	63245.18
1305.00	63339.58
1306.00	63367.66
1307.00	63237.37
1308.00	63173.40
1309.00	63106.30
1310.00	63239.71
1311.00	63296.67
1312.00	63420.72
1313.00	63378.59
1314.00	63421.50
1315.00	63417.60
1316.00	63410.57
1317.00	63372.34
1318.00	63455.82
1319.00	63546.32
1320.00	63629.02
1321.00	63643.85
1322.00	63699.24
1323.00	63675.05
1324.00	63738.25
1325.00	63744.49
1326.00	63766.34
1327.00	63717.96
1328.00	63664.13
1329.00	63629.80
1330.00	63566.61
1331.00	63540.08
1332.00	63540.08
1333.00	63581.43
1334.00	63639.17
1335.00	63675.05
1336.00	63694.56
1337.00	63698.46
1338.00	63637.61
1339.00	63702.36
1340.00	63781.16
1341.00	63905.99
1342.00	63859.96
1343.00	63905.21
1344.00	63910.67
1345.00	63920.03
1346.00	63795.20
1347.00	63686.76
1348.00	63603.28
1349.00	63704.70
1350.00	63734.35
1351.00	63806.12
1352.00	63753.07
1353.00	63735.91
1354.00	63654.77
1355.00	63629.80
1356.00	63743.71
1357.00	63934.85
1358.00	63913.01
1359.00	63896.62
1360.00	63766.34
1361.00	63848.25
1362.00	63857.62
1363.00	63953.58
1364.00	63923.93
1365.00	64022.23
1366.00	63986.35
1367.00	63922.37
1368.00	63839.67
1369.00	63857.62
1370.00	63834.21
1371.00	63700.02
1372.00	63667.25
1373.00	63680.52
1374.00	63721.08
1375.00	63699.24
1376.00	63781.94
1377.00	63861.52
1378.00	63895.84
1379.00	63895.06
1380.00	63848.25
1381.00	63884.92
1382.00	63920.03
1383.00	64001.95
1384.00	63959.04
1385.00	63974.64
1386.00	63929.39
1387.00	63994.15
1388.00	64003.51
1389.00	64008.19
1390.00	63990.25
1391.00	63984.00
1392.00	64094.01
1393.00	64146.28
1394.00	64117.42
1395.00	64048.76
1396.00	63973.86
1397.00	63909.11
1398.00	63857.62
1399.00	63817.05
1400.00	63931.73
1401.00	63921.59
1402.00	63984.79
1403.00	63821.73
1404.00	63769.46
1405.00	63641.51
1406.00	63544.76
1407.00	63563.49
1408.00	63572.85
1409.00	63650.09
1410.00	63673.49
1411.00	63646.97
1412.00	63662.57
1413.00	63632.92
1414.00	63625.90
1415.00	63673.49
1416.00	63707.82
1417.00	63813.93
1418.00	63856.84
1419.00	63849.03
1420.00	63876.34
1421.00	63923.93
1422.00	63937.97
1423.00	63919.25
1424.00	63808.46
1425.00	63763.99
1426.00	63638.39
1427.00	63692.22
1428.00	63664.91
1429.00	63680.52
1430.00	63636.83
1431.00	63636.83
1432.00	63716.40
1433.00	63691.44
1434.00	63753.85
1435.00	63644.63
1436.00	63597.04
1437.00	63562.71
1438.00	63570.51
1439.00	63648.53
1440.00	63723.43
1441.00	63777.26
1442.00	63810.03
1443.00	63728.11
1444.00	63668.81
1445.00	63666.47
1446.00	63662.57
1447.00	63733.57
1448.00	63658.67
1449.00	63614.98
1450.00	63551.79
1451.00	63543.98
1452.00	63631.36
1453.00	63726.55
1454.00	63808.46
1455.00	63812.37
1456.00	63806.12
1457.00	63774.14
1458.00	63771.80
1459.00	63708.60
1460.00	63643.85
1461.00	63540.86
1462.00	63487.03
1463.00	63389.51
1464.00	63458.94
1465.00	63504.98
1466.00	63514.34
1467.00	63414.47
1468.00	63370.00
1469.00	63484.69
1470.00	63548.67
1471.00	63521.36
1472.00	63418.38
1473.00	63417.60
1474.00	63479.23
1475.00	63613.42
1476.00	63609.52
1477.00	63598.60
1478.00	63576.75
1479.00	63492.49
1480.00	63432.42
1481.00	63373.91
1482.00	63429.30
1483.00	63459.73
1484.00	63458.16
1485.00	63393.41
1486.00	63261.56
1487.00	63166.38
1488.00	63142.19
1489.00	63206.95
1490.00	63281.06
1491.00	63343.48
1492.00	63417.60
1493.00	63352.84
1494.00	63304.47
1495.00	63304.47
1496.00	63351.28
1497.00	63286.53
1498.00	63251.42
1499.00	63182.76
1500.00	63210.85
1501.00	63173.40
1502.00	63201.49
1503.00	63171.84
1504.00	63147.65
1505.00	63261.56
1506.00	63400.43
1507.00	63501.07
1508.00	63339.58
1509.00	63252.98
1510.00	63206.17
1511.00	63185.88
1512.00	63068.86
1513.00	62984.60
1514.00	62988.50
1515.00	62983.82
1516.00	62927.64
1517.00	62962.75
1518.00	63034.53
1519.00	63120.35
1520.00	63102.40
1521.00	63058.71
1522.00	62981.48
1523.00	62976.01
1524.00	63039.21
1525.00	63110.20
1526.00	63167.16
1527.00	63102.40
1528.00	63064.17
1529.00	62868.35
1530.00	62790.33
1531.00	62744.30
1532.00	62830.90
1533.00	62965.09
1534.00	62922.96
1535.00	62940.91
1536.00	62835.58
1537.00	62844.16
1538.00	62727.92
1539.00	62687.35
1540.00	62707.63
1541.00	62822.32
1542.00	62848.85
1543.00	62855.09
1544.00	62893.32
1545.00	62958.85
1546.00	63042.33
1547.00	62944.81
1548.00	62866.79
1549.00	62758.34
1550.00	62825.44
1551.00	62888.63
1552.00	62926.08
1553.00	62922.96
1554.00	62868.35
1555.00	62827.78
1556.00	62795.79
1557.00	62763.81
1558.00	62817.64
1559.00	62859.77
1560.00	62966.65
1561.00	62987.72
1562.00	62876.15
1563.00	62795.79
1564.00	62737.28
1565.00	62827.78
1566.00	62858.99
1567.00	62862.89
1568.00	62794.23
1569.00	62743.52
1570.00	62601.53
1571.00	62483.72
1572.00	62380.74
1573.00	62369.04
1574.00	62429.89
1575.00	62467.34
1576.00	62460.32
1577.00	62467.34
1578.00	62426.77
1579.00	62434.57
1580.00	62332.37
1581.00	62322.22
1582.00	62341.73
1583.00	62440.81
1584.00	62533.65
1585.00	62585.14
1586.00	62425.99
1587.00	62270.73
1588.00	62175.55
1589.00	62259.81
1590.00	62326.91
1591.00	62342.51
1592.00	62312.86
1593.00	62263.71
1594.00	62178.67
1595.00	62078.03
1596.00	62159.17
1597.00	62229.38
1598.00	62301.94
1599.00	62194.28
1600.00	62112.36
1601.00	62062.43
1602.00	62008.59
1603.00	61929.01
1604.00	61977.39
1605.00	62046.04
1606.00	62130.30
1607.00	62024.98
1608.00	61986.75
1609.00	62009.37
1610.00	62034.34
1611.00	62044.48
1612.00	62012.49
1613.00	62130.30
1614.00	62153.71
1615.00	62185.69
1616.00	62083.49
1617.00	62028.88
1618.00	61988.31
1619.00	62010.15
1620.00	62032.78
1621.00	61984.41
1622.00	61964.90
1623.00	61929.01
1624.00	62021.08
1625.00	62029.66
1626.00	62039.02
1627.00	61948.52
1628.00	61978.95
1629.00	62079.59
1630.00	62215.34
1631.00	62240.31
1632.00	62101.43
1633.00	61941.50
1634.00	61891.57
1635.00	61877.52
1636.00	61817.45
1637.00	61716.81
1638.00	61648.15
1639.00	61695.74
1640.00	61700.42
1641.00	61794.04
1642.00	61818.23
1643.00	61879.08
1644.00	61829.15
1645.00	61872.84
1646.00	61887.67
1647.00	61851.00
1648.00	61723.05
1649.00	61567.79
1650.00	61486.65
1651.00	61419.56
1652.00	61454.67
1653.00	61584.96
1654.00	61648.93
1655.00	61648.15
1656.00	61555.31
1657.00	61679.36
1658.00	61884.54
1659.00	61998.45
1660.00	62037.46
1661.00	61926.67
1662.00	61993.77
1663.00	61931.36
1664.00	61939.94
1665.00	61851.78
1666.00	61780.78
1667.00	61662.19
1668.00	61590.42
1669.00	61545.95
1670.00	61462.47
1671.00	61411.76
1672.00	61462.47
1673.00	61585.74
1674.00	61712.91
1675.00	61726.17
1676.00	61655.95
1677.00	61548.29
1678.00	61472.61
1679.00	61486.65
1680.00	61471.05
1681.00	61513.18
1682.00	61476.51
1683.00	61450.77
1684.00	61314.23
1685.00	61272.88
1686.00	61251.82
1687.00	61291.61
1688.00	61305.65
1689.00	61249.48
1690.00	61155.08
1691.00	61164.44
1692.00	61276.01
1693.00	61379.77
1694.00	61404.73
1695.00	61404.73
1696.00	61431.26
1697.00	61483.53
1698.00	61393.81
1699.00	61258.06
1700.00	61068.48
1701.00	60968.61
1702.00	60960.03
1703.00	60905.42
1704.00	60917.90
1705.00	60853.15
1706.00	60849.25
1707.00	60790.73
1708.00	60740.02
1709.00	60653.42
1710.00	60675.27
1711.00	60688.53
1712.00	60814.92
1713.00	60853.15
1714.00	60829.74
1715.00	60803.22
1716.00	60687.75
1717.00	60733.00
1718.00	60706.47
1719.00	60653.42
1720.00	60626.12
1721.00	60605.83
1722.00	60623.00
1723.00	60647.96
1724.00	60562.14
1725.00	60550.44
1726.00	60374.12
1727.00	60384.26
1728.00	60341.35
1729.00	60388.94
1730.00	60342.91
1731.00	60395.18
1732.00	60434.97
1733.00	60427.17
1734.00	60449.80
1735.00	60430.29
1736.00	60422.49
1737.00	60289.86
1738.00	60179.85
1739.00	60123.68
1740.00	59991.05
1741.00	60002.75
1742.00	59898.21
1743.00	59907.57
1744.00	59923.18
1745.00	59955.16
1746.00	59935.66
1747.00	59787.42
1748.00	59791.33
1749.00	59869.34
1750.00	59868.56
1751.00	59813.17
1752.00	59669.62
1753.00	59624.37
1754.00	59537.77
1755.00	59507.34
1756.00	59406.70
1757.00	59336.48
1758.00	59169.52
1759.00	59196.83
1760.00	59174.20
1761.00	59295.13
1762.00	59280.31
1763.00	59238.18
1764.00	59080.58
1765.00	58917.53
1766.00	58883.98
1767.00	58891.00
1768.00	58819.22
1769.00	58774.75
1770.00	58874.62
1771.00	58941.71
1772.00	58844.97
1773.00	58661.63
1774.00	58587.51
1775.00	58578.15
1776.00	58653.04
1777.00	58612.48
1778.00	58642.12
1779.00	58525.88
1780.00	58433.81
1781.00	58283.24
1782.00	58300.40
1783.00	58255.15
1784.00	58362.04
1785.00	58337.07
1786.00	58420.55
1787.00	58387.00
1788.00	58288.70
1789.00	58188.06
1790.00	58139.69
1791.00	58071.81
1792.00	57996.91
1793.00	57810.45
1794.00	57792.51
1795.00	57729.31
1796.00	57691.86
1797.00	57564.70
1798.00	57578.74
1799.00	57620.09
1800.00	57661.44
1801.00	57687.18
1802.00	57674.70
1803.00	57610.73
1804.00	57425.82
1805.00	57128.58
1806.00	57016.23
1807.00	56969.42
1808.00	56943.67
1809.00	56885.94
1810.00	56825.87
1811.00	56814.94
1812.00	56649.55
1813.00	56469.32
1814.00	56381.95
1815.00	56346.06
1816.00	56314.07
1817.00	56115.12
1818.00	55909.94
1819.00	55654.04
1820.00	55556.52
1821.00	55524.53
1822.00	55587.72
1823.00	55643.90
1824.00	55688.37
1825.00	55670.42
1826.00	55590.84
1827.00	55433.25
1828.00	55401.26
1829.00	55309.20
1830.00	54994.79
1831.00	54790.38
1832.00	54642.15
1833.00	54724.07
1834.00	54531.36
1835.00	54309.79
1836.00	54067.16
1837.00	54079.64
1838.00	54219.29
1839.00	54371.42
1840.00	54379.23
1841.00	54238.01
1842.00	54111.63
1843.00	53838.56
1844.00	53664.58
1845.00	53533.51
1846.00	53434.43
1847.00	53329.11
1848.00	53244.85
1849.00	53150.45
1850.00	53079.45
1851.00	52963.98
1852.00	52981.15
1853.00	52982.71
1854.00	52857.88
1855.00	52649.57
1856.00	52417.86
1857.00	52190.83
1858.00	52102.67
1859.00	51884.22
1860.00	51749.24
1861.00	51466.82
1862.00	51361.50
1863.00	51340.43
1864.00	51197.66
1865.00	51105.60
1866.00	50919.13
1867.00	50851.26
1868.00	50780.26
1869.00	50632.81
1870.00	50507.20
1871.00	50263.78
1872.00	49990.72
1873.00	49643.54
1874.00	49283.10
1875.00	49148.13
1876.00	49114.58
1877.00	49127.06
1878.00	49175.44
1879.00	49113.02
1880.00	49185.58
1881.00	49031.10
1882.00	48828.26
1883.00	48495.90
1884.00	48350.01
1885.00	48240.00
1886.00	48086.31
1887.00	47915.45
1888.00	47814.02
1889.00	47799.98
1890.00	47633.02
1891.00	47523.80
1892.00	47202.36
1893.00	47189.10
1894.00	47082.22
1895.00	47295.99
1896.00	47164.92
1897.00	47012.78
1898.00	46635.17
1899.00	46554.82
1900.00	46422.97
1901.00	46337.93
1902.00	46064.86
1903.00	45833.93
1904.00	45718.46
1905.00	45745.77
1906.00	45511.72
1907.00	45022.55
1908.00	44635.58
1909.00	44591.89
1910.00	44634.80
1911.00	44430.39
1912.00	44114.42
1913.00	43854.62
1914.00	43496.52
1915.00	43301.47
1916.00	43231.26
1917.00	43120.47
1918.00	42916.06
1919.00	42522.85
1920.00	42231.85
1921.00	41963.46
1922.00	41942.40
1923.00	41721.61
1924.00	41574.16
1925.00	41308.90
1926.00	41108.39
1927.00	40584.11
1928.00	40381.26
1929.00	40446.80
1930.00	40540.42
1931.00	40403.11
1932.00	40280.62
1933.00	40434.31
1934.00	40289.98
1935.00	40033.30
1936.00	39563.64
1937.00	39276.53
1938.00	39058.08
1939.00	39038.58
1940.00	38890.34
1941.00	38615.72
1942.00	38301.31
1943.00	38034.49
1944.00	37896.39
1945.00	37711.49
1946.00	37704.47
1947.00	37371.33
1948.00	37206.72
1949.00	36739.39
1950.00	36786.98
1951.00	36628.60
1952.00	36676.19
1953.00	36411.71
1954.00	36151.13
1955.00	35842.96
1956.00	35607.35
1957.00	35320.24
1958.00	35100.23
1959.00	34813.91
1960.00	34574.39
1961.00	34273.24
1962.00	33953.37
1963.00	33694.35
1964.00	33489.95
1965.00	33225.46
1966.00	32970.35
1967.00	32764.38
1968.00	32783.10
1969.00	32449.19
1970.00	32187.05
1971.00	31862.49
1972.00	31944.41
1973.00	31869.51
1974.00	31658.87
1975.00	31316.37
1976.00	30974.65
1977.00	30710.95
1978.00	30546.33
1979.00	30208.51
1980.00	30051.70
1981.00	29873.04
1982.00	29804.38
1983.00	29591.39
1984.00	29267.62
1985.00	29154.49
1986.00	29064.77
1987.00	29115.48
1988.00	28976.61
1989.00	28658.30
1990.00	28555.32
1991.00	28318.14
1992.00	28147.28
1993.00	27662.01
1994.00	27431.86
1995.00	27290.65
1996.00	27158.02
1997.00	26941.91
1998.00	26792.11
1999.00	26718.00
2000.00	26585.36
2001.00	26341.95
2002.00	26089.95
2003.00	26008.81
2004.00	25713.13
2005.00	25522.76
2006.00	25240.34
2007.00	25238.00
2008.00	24998.48
2009.00	24756.63
2010.00	24400.08
2011.00	24305.68
2012.00	24159.79
2013.00	24150.43
2014.00	23974.89
2015.00	23836.80
2016.00	23580.12
2017.00	23394.43
2018.00	23065.98
2019.00	22757.03
2020.00	22544.04
2021.00	22626.74
2022.00	22513.61
2023.00	22280.34
2024.00	21824.72
2025.00	21607.05
2026.00	21493.14
2027.00	21431.51
2028.00	21402.64
2029.00	21392.50
2030.00	21345.69
2031.00	21192.77
2032.00	20915.03
2033.00	20702.82
2034.00	20704.38
2035.00	20613.88
2036.00	20446.92
2037.00	20156.69
2038.00	19900.80
2039.00	19755.68
2040.00	19520.85
2041.00	19342.97
2042.00	19205.66
2043.00	19158.85
2044.00	19095.65
2045.00	18934.15
2046.00	18716.48
2047.00	18487.89
>>>>>End Processed Spectral Data<<<<<
