SpectraSuite Data File
++++++++++++++++++++++++++++++++++++
Date: Thu Nov 16 14:01:07 EST 2017
User: cheriyan
Dark Spectrum Present: No
Reference Spectrum Present: No
Number of Sampled Component Spectra: 1
Spectrometers: USB2+H05261
Integration Time (usec): 100000 (USB2+H05261)
Spectra Averaged: 1 (USB2+H05261)
Boxcar Smoothing: 1 (USB2+H05261)
Correct for Electrical Dark: No (USB2+H05261)
Strobe/Lamp Enabled: No (USB2+H05261)
Correct for Detector Non-linearity: No (USB2+H05261)
Correct for Stray Light: No (USB2+H05261)
Number of Pixels in Processed Spectrum: 2048
>>>>>Begin Processed Spectral Data<<<<<
0.00	285.55
1.00	285.55
2.00	293.35
3.00	262.14
4.00	257.46
5.00	236.39
6.00	263.70
7.00	273.06
8.00	274.62
9.00	255.90
10.00	237.17
11.00	251.22
12.00	265.26
13.00	267.60
14.00	236.39
15.00	234.05
16.00	218.45
17.00	230.15
18.00	226.25
19.00	239.51
20.00	266.82
21.00	299.59
22.00	333.14
23.00	390.09
24.00	532.86
25.00	696.70
26.00	802.80
27.00	825.43
28.00	831.67
29.00	844.15
30.00	841.03
31.00	841.03
32.00	861.32
33.00	851.95
34.00	854.30
35.00	840.25
36.00	876.92
37.00	889.40
38.00	905.01
39.00	923.73
40.00	943.24
41.00	961.18
42.00	951.04
43.00	936.21
44.00	930.75
45.00	942.46
46.00	985.37
47.00	1011.11
48.00	1000.19
49.00	973.66
50.00	960.40
51.00	973.66
52.00	993.95
53.00	997.85
54.00	997.07
55.00	983.02
56.00	979.12
57.00	982.24
58.00	994.73
59.00	984.59
60.00	1004.09
61.00	997.85
62.00	1016.57
63.00	1028.28
64.00	1053.24
65.00	1081.33
66.00	1091.47
67.00	1088.35
68.00	1057.92
69.00	1042.32
70.00	1061.82
71.00	1088.35
72.00	1077.43
73.00	1025.93
74.00	1013.45
75.00	1015.79
76.00	1065.72
77.00	1070.40
78.00	1080.55
79.00	1054.02
80.00	1075.09
81.00	1128.14
82.00	1128.14
83.00	1147.64
84.00	1101.61
85.00	1125.80
86.00	1098.49
87.00	1116.44
88.00	1148.42
89.00	1160.13
90.00	1185.09
91.00	1190.55
92.00	1219.42
93.00	1228.00
94.00	1228.00
95.00	1228.00
96.00	1215.52
97.00	1199.91
98.00	1188.99
99.00	1168.71
100.00	1171.05
101.00	1210.84
102.00	1248.29
103.00	1277.93
104.00	1274.03
105.00	1290.42
106.00	1288.07
107.00	1299.78
108.00	1258.43
109.00	1249.07
110.00	1260.77
111.00	1324.74
112.00	1323.96
113.00	1301.34
114.00	1272.47
115.00	1300.56
116.00	1335.67
117.00	1345.03
118.00	1337.23
119.00	1341.13
120.00	1380.14
121.00	1370.77
122.00	1368.43
123.00	1371.55
124.00	1460.49
125.00	1494.04
126.00	1473.76
127.00	1432.41
128.00	1431.63
129.00	1471.42
130.00	1497.94
131.00	1477.66
132.00	1485.46
133.00	1476.88
134.00	1473.76
135.00	1466.74
136.00	1481.56
137.00	1569.72
138.00	1591.56
139.00	1579.08
140.00	1502.62
141.00	1504.96
142.00	1536.95
143.00	1601.71
144.00	1589.22
145.00	1583.76
146.00	1547.87
147.00	1598.59
148.00	1602.49
149.00	1673.48
150.00	1661.00
151.00	1693.77
152.00	1653.20
153.00	1672.70
154.00	1693.77
155.00	1683.63
156.00	1672.70
157.00	1687.53
158.00	1707.03
159.00	1732.78
160.00	1732.78
161.00	1767.10
162.00	1802.99
163.00	1820.16
164.00	1843.56
165.00	1805.33
166.00	1788.95
167.00	1797.53
168.00	1817.04
169.00	1871.65
170.00	1879.45
171.00	1927.04
172.00	1913.00
173.00	1927.82
174.00	1893.49
175.00	1887.25
176.00	1870.09
177.00	1914.56
178.00	1941.08
179.00	1965.27
180.00	1981.65
181.00	1975.41
182.00	1993.36
183.00	1995.70
184.00	2027.68
185.00	1985.55
186.00	1986.33
187.00	1994.14
188.00	2035.49
189.00	2013.64
190.00	2033.15
191.00	2044.07
192.00	2071.37
193.00	2059.67
194.00	2070.59
195.00	2091.66
196.00	2097.90
197.00	2122.87
198.00	2145.49
199.00	2162.66
200.00	2151.73
201.00	2154.85
202.00	2201.66
203.00	2218.83
204.00	2250.04
205.00	2216.49
206.00	2248.47
207.00	2265.64
208.00	2290.60
209.00	2296.07
210.00	2290.60
211.00	2289.82
212.00	2314.79
213.00	2330.39
214.00	2350.68
215.00	2346.78
216.00	2368.62
217.00	2410.75
218.00	2396.71
219.00	2345.22
220.00	2324.93
221.00	2344.44
222.00	2392.81
223.00	2408.41
224.00	2438.06
225.00	2456.00
226.00	2506.71
227.00	2546.50
228.00	2576.93
229.00	2569.91
230.00	2557.43
231.00	2562.11
232.00	2551.18
233.00	2543.38
234.00	2557.43
235.00	2604.24
236.00	2675.23
237.00	2717.36
238.00	2745.45
239.00	2754.03
240.00	2771.19
241.00	2775.88
242.00	2819.57
243.00	2807.86
244.00	2850.77
245.00	2848.43
246.00	2896.80
247.00	2911.63
248.00	2934.25
249.00	2942.83
250.00	2922.55
251.00	2923.33
252.00	2916.31
253.00	2956.10
254.00	2977.94
255.00	3031.77
256.00	3066.88
257.00	3129.30
258.00	3169.09
259.00	3166.74
260.00	3136.32
261.00	3129.30
262.00	3173.77
263.00	3228.38
264.00	3230.72
265.00	3264.27
266.00	3243.98
267.00	3326.68
268.00	3350.87
269.00	3446.05
270.00	3435.13
271.00	3433.57
272.00	3405.48
273.00	3464.77
274.00	3486.62
275.00	3494.42
276.00	3484.28
277.00	3490.52
278.00	3492.08
279.00	3502.22
280.00	3538.89
281.00	3620.03
282.00	3669.96
283.00	3708.19
284.00	3709.75
285.00	3692.59
286.00	3663.72
287.00	3656.70
288.00	3684.78
289.00	3712.87
290.00	3728.47
291.00	3719.89
292.00	3707.41
293.00	3755.00
294.00	3810.39
295.00	3872.03
296.00	3880.61
297.00	3837.70
298.00	3838.48
299.00	3815.07
300.00	3844.72
301.00	3779.97
302.00	3829.12
303.00	3855.64
304.00	3953.16
305.00	3942.24
306.00	3921.96
307.00	3914.16
308.00	3913.38
309.00	3944.58
310.00	3982.03
311.00	3997.64
312.00	3979.69
313.00	3943.80
314.00	3953.94
315.00	3945.36
316.00	3999.20
317.00	4010.12
318.00	4066.29
319.00	4024.16
320.00	4064.73
321.00	4118.56
322.00	4212.96
323.00	4253.53
324.00	4301.90
325.00	4317.51
326.00	4347.94
327.00	4356.52
328.00	4357.30
329.00	4355.74
330.00	4336.23
331.00	4322.19
332.00	4316.73
333.00	4372.12
334.00	4414.25
335.00	4492.27
336.00	4496.95
337.00	4567.17
338.00	4539.08
339.00	4607.73
340.00	4626.46
341.00	4692.77
342.00	4629.58
343.00	4628.02
344.00	4634.26
345.00	4716.18
346.00	4759.87
347.00	4752.85
348.00	4761.43
349.00	4766.89
350.00	4807.46
351.00	4841.01
352.00	4865.19
353.00	4907.32
354.00	4940.09
355.00	4947.11
356.00	4951.01
357.00	4965.06
358.00	5029.81
359.00	5046.20
360.00	5033.71
361.00	5061.02
362.00	5142.94
363.00	5181.95
364.00	5154.64
365.00	5121.09
366.00	5137.48
367.00	5211.59
368.00	5291.17
369.00	5315.36
370.00	5266.21
371.00	5195.99
372.00	5188.97
373.00	5247.48
374.00	5281.03
375.00	5350.46
376.00	5380.89
377.00	5450.33
378.00	5502.60
379.00	5533.81
380.00	5585.30
381.00	5573.60
382.00	5606.36
383.00	5672.68
384.00	5742.89
385.00	5772.54
386.00	5750.70
387.00	5754.60
388.00	5807.65
389.00	5925.46
390.00	5980.07
391.00	6026.88
392.00	5996.45
393.00	6080.71
394.00	6117.38
395.00	6164.19
396.00	6209.44
397.00	6221.92
398.00	6272.64
399.00	6329.59
400.00	6403.71
401.00	6456.76
402.00	6480.16
403.00	6552.72
404.00	6580.03
405.00	6583.93
406.00	6577.69
407.00	6586.27
408.00	6531.66
409.00	6491.09
410.00	6528.53
411.00	6661.94
412.00	6771.95
413.00	6719.68
414.00	6690.03
415.00	6665.07
416.00	6764.93
417.00	6750.11
418.00	6789.11
419.00	6788.33
420.00	6845.29
421.00	6855.43
422.00	6871.81
423.00	6898.34
424.00	6921.74
425.00	6966.21
426.00	6974.02
427.00	6939.69
428.00	6906.14
429.00	6824.22
430.00	6911.60
431.00	6927.99
432.00	6995.86
433.00	6930.33
434.00	6963.09
435.00	7034.09
436.00	7135.51
437.00	7166.72
438.00	7201.83
439.00	7211.19
440.00	7220.55
441.00	7314.17
442.00	7426.52
443.00	7514.68
444.00	7486.59
445.00	7446.02
446.00	7478.01
447.00	7549.01
448.00	7593.48
449.00	7574.75
450.00	7527.16
451.00	7576.31
452.00	7616.10
453.00	7721.43
454.00	7716.75
455.00	7792.42
456.00	7738.59
457.00	7774.48
458.00	7751.07
459.00	7793.98
460.00	7820.51
461.00	7896.19
462.00	7954.70
463.00	7934.42
464.00	7957.82
465.00	8013.21
466.00	8118.54
467.00	8113.86
468.00	8138.82
469.00	8140.38
470.00	8240.25
471.00	8292.52
472.00	8373.66
473.00	8367.42
474.00	8397.06
475.00	8436.85
476.00	8535.93
477.00	8628.78
478.00	8697.43
479.00	8725.52
480.00	8687.29
481.00	8707.57
482.00	8709.91
483.00	8727.08
484.00	8776.23
485.00	8791.83
486.00	8902.62
487.00	8863.61
488.00	8961.13
489.00	9021.20
490.00	9132.77
491.00	9099.22
492.00	9125.75
493.00	9128.09
494.00	9227.95
495.00	9161.64
496.00	9094.54
497.00	9121.07
498.00	9186.60
499.00	9405.83
500.00	9396.47
501.00	9441.72
502.00	9449.52
503.00	9464.35
504.00	9578.25
505.00	9548.61
506.00	9605.56
507.00	9623.50
508.00	9791.24
509.00	9880.18
510.00	9884.08
511.00	9905.93
512.00	10054.16
513.00	10088.49
514.00	10074.45
515.00	9996.43
516.00	10067.42
517.00	10053.38
518.00	10114.24
519.00	10122.04
520.00	10192.25
521.00	10189.91
522.00	10182.89
523.00	10247.65
524.00	10305.38
525.00	10485.60
526.00	10433.33
527.00	10436.45
528.00	10352.19
529.00	10394.32
530.00	10439.57
531.00	10503.54
532.00	10558.94
533.00	10615.11
534.00	10675.18
535.00	10750.08
536.00	10664.26
537.00	10581.56
538.00	10601.85
539.00	10706.39
540.00	10847.60
541.00	10919.38
542.00	10885.83
543.00	10920.94
544.00	10932.64
545.00	11104.28
546.00	11087.90
547.00	11101.16
548.00	11151.09
549.00	11311.81
550.00	11391.39
551.00	11481.89
552.00	11495.15
553.00	11580.97
554.00	11583.31
555.00	11619.98
556.00	11575.51
557.00	11541.18
558.00	11612.18
559.00	11791.62
560.00	11900.84
561.00	11880.56
562.00	11865.74
563.00	12016.31
564.00	12140.36
565.00	12293.27
566.00	12431.37
567.00	12482.08
568.00	12482.08
569.00	12326.82
570.00	12439.17
571.00	12523.43
572.00	12671.66
573.00	12729.39
574.00	12720.81
575.00	12833.16
576.00	13012.60
577.00	13202.18
578.00	13383.96
579.00	13345.73
580.00	13444.04
581.00	13446.38
582.00	13628.16
583.00	13766.25
584.00	13936.33
585.00	13983.92
586.00	14057.26
587.00	14020.59
588.00	13986.26
589.00	14064.28
590.00	14178.97
591.00	14390.39
592.00	14469.97
593.00	14686.08
594.00	14820.27
595.00	14930.28
596.00	15037.94
597.00	15143.27
598.00	15367.18
599.00	15418.67
600.00	15573.92
601.00	15616.05
602.00	15765.85
603.00	15758.83
604.00	15986.64
605.00	16250.34
606.00	16443.82
607.00	16528.08
608.00	16557.73
609.00	16712.21
610.00	16692.70
611.00	16675.54
612.00	16763.70
613.00	16877.60
614.00	17122.58
615.00	17244.29
616.00	17411.25
617.00	17442.45
618.00	17603.95
619.00	17784.17
620.00	18094.68
621.00	18360.72
622.00	18546.41
623.00	18717.26
624.00	18656.41
625.00	18687.62
626.00	18722.73
627.00	18931.03
628.00	19045.72
629.00	19229.06
630.00	19546.59
631.00	19858.67
632.00	19827.46
633.00	20040.45
634.00	20273.72
635.00	20511.67
636.00	20595.93
637.00	20677.85
638.00	20977.44
639.00	21000.85
640.00	21098.37
641.00	21112.41
642.00	21294.19
643.00	21395.62
644.00	21681.94
645.00	21842.66
646.00	22029.90
647.00	22117.28
648.00	22214.02
649.00	22443.40
650.00	22675.89
651.00	23101.87
652.00	23236.06
653.00	23350.74
654.00	23327.34
655.00	23520.04
656.00	23696.36
657.00	23779.84
658.00	23902.33
659.00	24162.91
660.00	24561.58
661.00	24726.20
662.00	24813.58
663.00	24851.03
664.00	25123.31
665.00	25261.40
666.00	25445.52
667.00	25509.50
668.00	25595.32
669.00	25657.73
670.00	25667.88
671.00	25957.32
672.00	26137.54
673.00	26346.63
674.00	26529.97
675.00	26748.42
676.00	27013.68
677.00	27096.38
678.00	27219.65
679.00	27363.98
680.00	27484.13
681.00	27696.34
682.00	27949.90
683.00	28126.22
684.00	28329.06
685.00	28418.00
686.00	28633.33
687.00	28847.88
688.00	28872.07
689.00	29066.33
690.00	29120.17
691.00	29426.78
692.00	29382.31
693.00	29596.85
694.00	29901.90
695.00	30252.98
696.00	30335.68
697.00	30387.18
698.00	30590.02
699.00	30823.30
700.00	30898.19
701.00	31100.26
702.00	31403.75
703.00	31596.45
704.00	31746.25
705.00	31853.13
706.00	32134.78
707.00	32233.86
708.00	32442.17
709.00	32639.55
710.00	32892.33
711.00	32991.41
712.00	33137.30
713.00	33047.58
714.00	33088.93
715.00	33156.81
716.00	33287.88
717.00	33610.87
718.00	33624.14
719.00	33785.63
720.00	33720.88
721.00	33820.74
722.00	34000.18
723.00	34144.52
724.00	34440.20
725.00	34600.92
726.00	34690.64
727.00	34825.61
728.00	34891.15
729.00	35118.96
730.00	35150.95
731.00	35205.56
732.00	35243.79
733.00	35453.65
734.00	35595.65
735.00	35607.35
736.00	35721.26
737.00	35909.28
738.00	36140.99
739.00	36119.15
740.00	36307.95
741.00	36364.90
742.00	36552.93
743.00	36387.53
744.00	36614.56
745.00	36783.86
746.00	37262.11
747.00	37443.11
748.00	37645.96
749.00	37658.44
750.00	37724.75
751.00	37676.38
752.00	37943.98
753.00	38007.96
754.00	38256.84
755.00	38288.04
756.00	38548.62
757.00	38703.10
758.00	38883.32
759.00	38796.72
760.00	38692.96
761.00	38741.33
762.00	39051.06
763.00	39370.15
764.00	39398.24
765.00	39377.95
766.00	39529.31
767.00	39841.38
768.00	40005.22
769.00	40040.32
770.00	40276.72
771.00	40389.06
772.00	40518.57
773.00	40569.29
774.00	40668.37
775.00	40836.89
776.00	40871.21
777.00	41130.23
778.00	41347.12
779.00	41513.30
780.00	41560.11
781.00	41759.84
782.00	41897.15
783.00	42079.71
784.00	42189.72
785.00	42374.62
786.00	42525.19
787.00	42559.52
788.00	42763.93
789.00	42930.89
790.00	42846.63
791.00	42779.53
792.00	42943.37
793.00	43239.06
794.00	43469.99
795.00	43452.05
796.00	43799.22
797.00	43867.10
798.00	44083.21
799.00	44116.76
800.00	44279.03
801.00	44372.66
802.00	44456.14
803.00	44433.51
804.00	44695.65
805.00	44777.57
806.00	44903.96
807.00	44843.88
808.00	45054.53
809.00	45199.65
810.00	45278.44
811.00	45316.67
812.00	45544.48
813.00	45703.64
814.00	45734.85
815.00	45897.13
816.00	46138.98
817.00	46186.57
818.00	46138.98
819.00	46105.43
820.00	46279.41
821.00	46432.33
822.00	46474.46
823.00	46498.64
824.00	46621.13
825.00	46749.86
826.00	46834.90
827.00	46994.06
828.00	47032.28
829.00	47160.23
830.00	47185.20
831.00	47261.66
832.00	47412.23
833.00	47185.20
834.00	47309.25
835.00	47506.63
836.00	47948.99
837.00	48300.86
838.00	48492.78
839.00	48577.82
840.00	48616.05
841.00	48649.60
842.00	48884.43
843.00	49171.53
844.00	49342.39
845.00	49524.96
846.00	49606.09
847.00	49704.40
848.00	49649.78
849.00	49696.59
850.00	49773.05
851.00	49890.08
852.00	49862.77
853.00	49932.99
854.00	49996.96
855.00	50256.76
856.00	50174.84
857.00	50231.80
858.00	50066.40
859.00	50179.53
860.00	50298.89
861.00	50365.99
862.00	50564.15
863.00	50582.10
864.00	50675.72
865.00	50625.01
866.00	50742.03
867.00	50796.65
868.00	50859.06
869.00	50948.00
870.00	51122.76
871.00	51324.83
872.00	51338.09
873.00	51306.88
874.00	51394.26
875.00	51483.98
876.00	51650.16
877.00	51773.43
878.00	51958.33
879.00	52190.83
880.00	52186.92
881.00	52108.13
882.00	51989.54
883.00	51987.98
884.00	52032.45
885.00	52120.61
886.00	52226.71
887.00	52367.93
888.00	52347.64
889.00	52303.17
890.00	52317.21
891.00	52459.21
892.00	52593.40
893.00	52484.17
894.00	52461.55
895.00	52555.95
896.00	52769.72
897.00	52717.45
898.00	52728.37
899.00	52797.80
900.00	53108.32
901.00	53256.55
902.00	53407.12
903.00	53530.39
904.00	53577.98
905.00	53769.91
906.00	53757.42
907.00	53775.37
908.00	53558.48
909.00	53710.61
910.00	53794.09
911.00	53930.62
912.00	53762.11
913.00	53819.84
914.00	53867.43
915.00	54036.73
916.00	53933.74
917.00	53711.39
918.00	53613.87
919.00	53521.81
920.00	53677.85
921.00	53687.99
922.00	53929.84
923.00	54046.09
924.00	54096.02
925.00	54186.52
926.00	54397.17
927.00	54530.58
928.00	54602.36
929.00	54674.13
930.00	54783.36
931.00	54775.56
932.00	54703.00
933.00	54580.51
934.00	54595.34
935.00	54575.05
936.00	54752.93
937.00	54888.68
938.00	54877.76
939.00	54807.54
940.00	54847.33
941.00	54984.65
942.00	55125.86
943.00	55159.41
944.00	55263.95
945.00	55268.63
946.00	55334.95
947.00	55377.07
948.00	55561.20
949.00	55636.09
950.00	55742.20
951.00	55835.04
952.00	55738.30
953.00	55700.85
954.00	55575.24
955.00	55710.99
956.00	55767.16
957.00	55774.19
958.00	55948.95
959.00	56055.05
960.00	56098.74
961.00	55951.29
962.00	56013.70
963.00	56262.58
964.00	56522.38
965.00	56492.73
966.00	56520.04
967.00	56526.28
968.00	56680.75
969.00	56594.93
970.00	56602.74
971.00	56639.40
972.00	56738.49
973.00	56690.90
974.00	56723.66
975.00	56905.44
976.00	56904.66
977.00	56935.09
978.00	56872.68
979.00	56940.55
980.00	56871.12
981.00	56887.50
982.00	56954.60
983.00	57041.20
984.00	57107.51
985.00	57121.55
986.00	57120.77
987.00	57011.55
988.00	57123.89
989.00	57070.06
990.00	57318.16
991.00	57258.87
992.00	57443.77
993.00	57334.54
994.00	57572.50
995.00	57689.52
996.00	57932.16
997.00	57993.79
998.00	58079.61
999.00	58076.49
1000.00	58071.03
1001.00	58049.19
1002.00	57991.45
1003.00	57854.92
1004.00	57897.05
1005.00	57860.38
1006.00	58022.66
1007.00	57959.47
1008.00	58049.97
1009.00	57891.59
1010.00	57936.06
1011.00	57989.89
1012.00	58171.67
1013.00	58147.49
1014.00	58224.73
1015.00	58309.77
1016.00	58408.85
1017.00	58402.61
1018.00	58354.24
1019.00	58382.32
1020.00	58470.48
1021.00	58590.63
1022.00	58656.17
1023.00	58564.88
1024.00	58440.06
1025.00	58453.32
1026.00	58608.57
1027.00	58784.11
1028.00	58841.85
1029.00	58792.70
1030.00	58842.63
1031.00	58963.56
1032.00	59118.81
1033.00	59202.29
1034.00	59212.43
1035.00	59192.93
1036.00	59167.96
1037.00	59195.27
1038.00	59235.06
1039.00	59182.01
1040.00	59187.47
1041.00	59178.89
1042.00	59311.52
1043.00	59384.85
1044.00	59486.28
1045.00	59568.19
1046.00	59634.51
1047.00	59605.64
1048.00	59627.49
1049.00	59626.71
1050.00	59810.83
1051.00	59849.84
1052.00	59813.95
1053.00	59724.23
1054.00	59593.94
1055.00	59638.41
1056.00	59642.31
1057.00	59794.45
1058.00	59835.02
1059.00	59842.04
1060.00	59898.99
1061.00	59946.58
1062.00	60111.20
1063.00	60098.72
1064.00	60065.17
1065.00	60016.02
1066.00	60133.04
1067.00	60260.99
1068.00	60275.04
1069.00	60232.91
1070.00	60183.76
1071.00	60186.10
1072.00	60169.71
1073.00	60259.43
1074.00	60380.36
1075.00	60466.18
1076.00	60453.70
1077.00	60519.23
1078.00	60569.94
1079.00	60649.52
1080.00	60538.74
1081.00	60577.75
1082.00	60587.89
1083.00	60694.77
1084.00	60630.80
1085.00	60647.18
1086.00	60648.74
1087.00	60815.70
1088.00	60808.68
1089.00	60884.36
1090.00	60853.93
1091.00	60989.68
1092.00	60943.65
1093.00	60928.83
1094.00	60900.74
1095.00	60942.09
1096.00	60937.41
1097.00	60911.66
1098.00	60896.84
1099.00	61013.08
1100.00	61169.12
1101.00	61240.90
1102.00	61165.22
1103.00	61148.06
1104.00	61171.46
1105.00	61247.92
1106.00	61173.80
1107.00	61228.41
1108.00	61264.30
1109.00	61371.97
1110.00	61393.81
1111.00	61389.91
1112.00	61451.55
1113.00	61448.42
1114.00	61453.11
1115.00	61382.89
1116.00	61344.66
1117.00	61328.28
1118.00	61339.20
1119.00	61370.41
1120.00	61427.36
1121.00	61428.14
1122.00	61451.55
1123.00	61424.24
1124.00	61473.39
1125.00	61415.66
1126.00	61410.20
1127.00	61382.89
1128.00	61528.78
1129.00	61558.43
1130.00	61673.12
1131.00	61667.65
1132.00	61707.44
1133.00	61551.41
1134.00	61506.16
1135.00	61443.74
1136.00	61597.44
1137.00	61712.12
1138.00	61853.34
1139.00	61826.03
1140.00	61772.98
1141.00	61786.24
1142.00	61789.36
1143.00	61764.40
1144.00	61805.75
1145.00	61862.70
1146.00	61945.40
1147.00	61900.93
1148.00	61949.30
1149.00	61961.78
1150.00	61952.42
1151.00	61892.35
1152.00	61905.61
1153.00	61933.70
1154.00	61925.11
1155.00	61901.71
1156.00	61822.91
1157.00	61872.06
1158.00	61821.35
1159.00	61939.16
1160.00	61902.49
1161.00	62032.78
1162.00	62008.59
1163.00	62007.03
1164.00	61936.04
1165.00	61968.80
1166.00	61980.51
1167.00	62039.02
1168.00	62124.06
1169.00	62260.59
1170.00	62259.03
1171.00	62198.18
1172.00	62069.45
1173.00	62044.48
1174.00	61968.80
1175.00	61996.89
1176.00	62020.30
1177.00	62116.26
1178.00	62071.01
1179.00	62074.91
1180.00	62025.76
1181.00	62073.35
1182.00	62083.49
1183.00	62124.06
1184.00	62154.49
1185.00	62175.55
1186.00	62156.05
1187.00	62230.16
1188.00	62312.08
1189.00	62326.13
1190.00	62195.06
1191.00	62102.99
1192.00	62031.22
1193.00	62023.42
1194.00	61977.39
1195.00	62028.10
1196.00	62028.88
1197.00	62026.54
1198.00	61936.04
1199.00	62071.01
1200.00	62162.29
1201.00	62376.06
1202.00	62331.59
1203.00	62362.79
1204.00	62266.05
1205.00	62330.03
1206.00	62274.63
1207.00	62313.64
1208.00	62249.67
1209.00	62272.29
1210.00	62338.61
1211.00	62429.89
1212.00	62480.60
1213.00	62455.64
1214.00	62299.60
1215.00	62166.97
1216.00	62053.06
1217.00	62154.49
1218.00	62234.84
1219.00	62337.83
1220.00	62368.26
1221.00	62356.55
1222.00	62336.27
1223.00	62410.38
1224.00	62482.94
1225.00	62584.36
1226.00	62518.83
1227.00	62466.56
1228.00	62337.83
1229.00	62287.12
1230.00	62323.00
1231.00	62526.63
1232.00	62640.54
1233.00	62651.46
1234.00	62518.05
1235.00	62504.79
1236.00	62604.65
1237.00	62639.76
1238.00	62727.14
1239.00	62644.44
1240.00	62666.28
1241.00	62635.86
1242.00	62652.24
1243.00	62602.31
1244.00	62545.36
1245.00	62594.51
1246.00	62660.82
1247.00	62737.28
1248.00	62741.18
1249.00	62834.80
1250.00	62836.36
1251.00	62918.28
1252.00	62946.37
1253.00	63100.06
1254.00	63079.00
1255.00	63002.54
1256.00	62915.16
1257.00	62970.55
1258.00	63047.79
1259.00	62938.57
1260.00	62883.95
1261.00	62876.93
1262.00	62996.30
1263.00	63093.82
1264.00	63074.32
1265.00	63105.52
1266.00	62980.70
1267.00	62999.42
1268.00	63086.80
1269.00	63196.02
1270.00	63246.74
1271.00	63225.67
1272.00	63309.93
1273.00	63351.28
1274.00	63353.62
1275.00	63297.45
1276.00	63294.33
1277.00	63181.98
1278.00	63206.17
1279.00	63346.60
1280.00	63431.64
1281.00	63520.58
1282.00	63565.05
1283.00	63658.67
1284.00	63597.82
1285.00	63618.88
1286.00	63718.74
1287.00	63700.02
1288.00	63483.91
1289.00	63314.61
1290.00	63316.17
1291.00	63418.38
1292.00	63455.82
1293.00	63534.62
1294.00	63565.83
1295.00	63619.66
1296.00	63622.00
1297.00	63525.26
1298.00	63529.16
1299.00	63528.38
1300.00	63625.90
1301.00	63556.47
1302.00	63522.14
1303.00	63447.24
1304.00	63562.71
1305.00	63689.88
1306.00	63795.20
1307.00	63694.56
1308.00	63599.38
1309.00	63586.11
1310.00	63708.60
1311.00	63673.49
1312.00	63834.21
1313.00	63831.09
1314.00	63984.01
1315.00	63845.13
1316.00	63929.39
1317.00	63900.53
1318.00	63920.03
1319.00	63850.59
1320.00	63919.25
1321.00	64086.99
1322.00	64172.03
1323.00	64215.72
1324.00	64217.28
1325.00	64232.88
1326.00	64175.15
1327.00	64079.97
1328.00	63978.54
1329.00	63958.26
1330.00	63871.66
1331.00	63899.75
1332.00	63831.87
1333.00	63913.01
1334.00	63972.30
1335.00	64100.25
1336.00	64125.22
1337.00	64126.00
1338.00	64104.15
1339.00	64171.25
1340.00	64224.30
1341.00	64307.78
1342.00	64286.71
1343.00	64306.22
1344.00	64287.49
1345.00	64279.69
1346.00	64141.60
1347.00	64143.16
1348.00	64087.77
1349.00	64189.19
1350.00	64129.90
1351.00	64153.30
1352.00	64064.36
1353.00	64170.47
1354.00	64158.76
1355.00	64226.64
1356.00	64152.52
1357.00	64251.61
1358.00	64265.65
1359.00	64306.22
1360.00	64270.33
1361.00	64289.05
1362.00	64305.44
1363.00	64345.23
1364.00	64368.63
1365.00	64396.72
1366.00	64316.36
1367.00	64283.59
1368.00	64214.94
1369.00	64311.68
1370.00	64268.77
1371.00	64161.89
1372.00	64013.65
1373.00	64024.57
1374.00	64097.91
1375.00	64051.88
1376.00	64016.77
1377.00	63980.88
1378.00	64083.09
1379.00	64178.27
1380.00	64232.10
1381.00	64240.68
1382.00	64186.07
1383.00	64179.05
1384.00	64190.75
1385.00	64304.66
1386.00	64400.62
1387.00	64478.64
1388.00	64486.44
1389.00	64429.49
1390.00	64470.06
1391.00	64509.07
1392.00	64576.94
1393.00	64543.39
1394.00	64488.78
1395.00	64420.12
1396.00	64437.29
1397.00	64331.18
1398.00	64385.80
1399.00	64350.69
1400.00	64409.20
1401.00	64289.84
1402.00	64272.67
1403.00	64157.20
1404.00	64189.97
1405.00	64079.19
1406.00	64048.76
1407.00	64014.43
1408.00	63964.50
1409.00	63969.96
1410.00	64026.91
1411.00	64111.95
1412.00	64141.60
1413.00	64051.88
1414.00	64063.58
1415.00	64144.72
1416.00	64264.87
1417.00	64267.21
1418.00	64237.56
1419.00	64172.03
1420.00	64207.92
1421.00	64179.05
1422.00	64215.72
1423.00	64140.82
1424.00	64099.47
1425.00	64051.10
1426.00	63987.91
1427.00	64053.44
1428.00	63980.88
1429.00	63959.82
1430.00	63987.91
1431.00	64047.98
1432.00	64172.81
1433.00	64141.60
1434.00	64144.72
1435.00	64083.87
1436.00	63994.93
1437.00	64026.13
1438.00	64061.24
1439.00	64156.42
1440.00	64170.47
1441.00	64175.15
1442.00	64196.21
1443.00	64139.26
1444.00	64134.58
1445.00	64104.93
1446.00	64160.33
1447.00	64165.01
1448.00	64104.15
1449.00	63960.60
1450.00	63901.31
1451.00	63930.17
1452.00	63950.46
1453.00	64056.56
1454.00	64097.91
1455.00	64186.85
1456.00	64104.15
1457.00	64069.82
1458.00	64068.26
1459.00	64057.34
1460.00	64069.82
1461.00	63953.58
1462.00	63874.78
1463.00	63728.89
1464.00	63767.12
1465.00	63802.22
1466.00	63884.14
1467.00	63828.75
1468.00	63798.32
1469.00	63795.20
1470.00	63910.67
1471.00	63929.39
1472.00	63866.20
1473.00	63782.72
1474.00	63828.75
1475.00	63891.16
1476.00	63929.39
1477.00	64031.60
1478.00	64070.60
1479.00	64062.02
1480.00	63909.89
1481.00	63868.54
1482.00	63838.11
1483.00	63880.24
1484.00	63852.15
1485.00	63775.70
1486.00	63634.49
1487.00	63549.45
1488.00	63575.97
1489.00	63555.69
1490.00	63564.27
1491.00	63607.96
1492.00	63641.51
1493.00	63717.18
1494.00	63691.44
1495.00	63721.86
1496.00	63657.89
1497.00	63590.80
1498.00	63495.61
1499.00	63460.51
1500.00	63444.12
1501.00	63529.94
1502.00	63526.82
1503.00	63541.64
1504.00	63563.49
1505.00	63627.46
1506.00	63713.28
1507.00	63675.05
1508.00	63614.98
1509.00	63611.86
1510.00	63625.12
1511.00	63661.79
1512.00	63600.16
1513.00	63598.60
1514.00	63572.85
1515.00	63590.80
1516.00	63501.85
1517.00	63554.91
1518.00	63527.60
1519.00	63558.03
1520.00	63508.10
1521.00	63439.44
1522.00	63397.31
1523.00	63382.49
1524.00	63480.01
1525.00	63595.48
1526.00	63592.36
1527.00	63507.32
1528.00	63398.09
1529.00	63307.59
1530.00	63287.31
1531.00	63196.02
1532.00	63325.53
1533.00	63355.96
1534.00	63353.62
1535.00	63213.97
1536.00	63178.86
1537.00	63222.55
1538.00	63291.21
1539.00	63319.29
1540.00	63354.40
1541.00	63267.80
1542.00	63238.93
1543.00	63228.01
1544.00	63255.32
1545.00	63252.20
1546.00	63242.06
1547.00	63235.81
1548.00	63203.83
1549.00	63225.67
1550.00	63218.65
1551.00	63180.42
1552.00	63128.15
1553.00	63185.10
1554.00	63181.20
1555.00	63228.01
1556.00	63174.18
1557.00	63245.96
1558.00	63183.54
1559.00	63160.14
1560.00	63125.03
1561.00	63200.71
1562.00	63297.45
1563.00	63347.38
1564.00	63334.90
1565.00	63295.89
1566.00	63283.40
1567.00	63277.16
1568.00	63240.49
1569.00	63159.36
1570.00	63054.03
1571.00	62888.63
1572.00	62816.86
1573.00	62800.47
1574.00	62874.59
1575.00	62888.63
1576.00	62834.02
1577.00	62868.35
1578.00	62808.28
1579.00	62788.77
1580.00	62680.33
1581.00	62730.26
1582.00	62783.31
1583.00	62802.03
1584.00	62821.54
1585.00	62842.60
1586.00	62763.03
1587.00	62605.43
1588.00	62596.85
1589.00	62647.56
1590.00	62658.48
1591.00	62506.35
1592.00	62448.61
1593.00	62436.13
1594.00	62487.62
1595.00	62447.83
1596.00	62523.51
1597.00	62597.63
1598.00	62756.78
1599.00	62762.25
1600.00	62690.47
1601.00	62570.32
1602.00	62548.48
1603.00	62465.00
1604.00	62445.49
1605.00	62425.99
1606.00	62420.53
1607.00	62376.06
1608.00	62330.03
1609.00	62318.32
1610.00	62276.19
1611.00	62359.67
1612.00	62465.78
1613.00	62620.25
1614.00	62554.72
1615.00	62489.96
1616.00	62343.29
1617.00	62404.14
1618.00	62437.69
1619.00	62493.08
1620.00	62375.28
1621.00	62348.75
1622.00	62372.16
1623.00	62338.61
1624.00	62394.78
1625.00	62383.86
1626.00	62484.50
1627.00	62383.08
1628.00	62403.36
1629.00	62444.71
1630.00	62555.50
1631.00	62593.73
1632.00	62546.92
1633.00	62386.20
1634.00	62384.64
1635.00	62322.22
1636.00	62340.95
1637.00	62264.49
1638.00	62177.11
1639.00	62185.69
1640.00	62191.93
1641.00	62294.14
1642.00	62276.19
1643.00	62255.91
1644.00	62252.01
1645.00	62326.13
1646.00	62355.77
1647.00	62376.84
1648.00	62287.12
1649.00	62148.24
1650.00	61987.53
1651.00	61943.06
1652.00	61941.50
1653.00	61986.75
1654.00	61964.12
1655.00	61951.64
1656.00	61945.40
1657.00	62076.47
1658.00	62202.86
1659.00	62315.20
1660.00	62346.41
1661.00	62361.23
1662.00	62370.60
1663.00	62299.60
1664.00	62236.40
1665.00	62173.99
1666.00	62201.30
1667.00	62168.53
1668.00	62099.09
1669.00	62022.64
1670.00	62021.08
1671.00	61995.33
1672.00	62016.39
1673.00	62034.34
1674.00	62167.75
1675.00	62172.43
1676.00	62171.65
1677.00	62095.97
1678.00	62006.25
1679.00	61918.09
1680.00	61804.97
1681.00	61783.90
1682.00	61787.02
1683.00	61790.92
1684.00	61783.12
1685.00	61804.97
1686.00	61811.21
1687.00	61732.41
1688.00	61591.98
1689.00	61549.07
1690.00	61516.30
1691.00	61596.66
1692.00	61668.44
1693.00	61816.67
1694.00	61828.37
1695.00	61826.03
1696.00	61822.13
1697.00	61851.00
1698.00	61805.75
1699.00	61666.09
1700.00	61590.42
1701.00	61453.11
1702.00	61454.67
1703.00	61413.32
1704.00	61430.48
1705.00	61368.07
1706.00	61362.60
1707.00	61241.68
1708.00	61199.55
1709.00	61095.78
1710.00	61138.69
1711.00	61154.30
1712.00	61222.17
1713.00	61297.07
1714.00	61273.66
1715.00	61244.02
1716.00	61138.69
1717.00	61112.17
1718.00	61095.00
1719.00	61104.37
1720.00	61095.00
1721.00	61031.03
1722.00	61063.02
1723.00	61167.56
1724.00	61191.75
1725.00	61197.99
1726.00	60939.75
1727.00	60807.90
1728.00	60703.35
1729.00	60782.93
1730.00	60844.57
1731.00	60835.20
1732.00	60909.32
1733.00	60837.54
1734.00	60853.93
1735.00	60785.27
1736.00	60771.23
1737.00	60619.88
1738.00	60571.50
1739.00	60559.80
1740.00	60595.69
1741.00	60558.24
1742.00	60456.82
1743.00	60316.39
1744.00	60220.42
1745.00	60190.78
1746.00	60212.62
1747.00	60148.65
1748.00	60161.13
1749.00	60199.36
1750.00	60242.27
1751.00	60183.76
1752.00	60016.80
1753.00	59980.91
1754.00	59966.87
1755.00	59990.27
1756.00	59941.90
1757.00	59880.27
1758.00	59732.03
1759.00	59597.06
1760.00	59498.76
1761.00	59589.26
1762.00	59604.86
1763.00	59469.11
1764.00	59365.35
1765.00	59288.11
1766.00	59271.73
1767.00	59172.64
1768.00	59147.68
1769.00	59231.16
1770.00	59334.92
1771.00	59352.08
1772.00	59141.44
1773.00	59056.40
1774.00	58962.00
1775.00	59061.08
1776.00	59120.37
1777.00	59088.38
1778.00	59054.06
1779.00	58888.66
1780.00	58887.10
1781.00	58802.84
1782.00	58836.39
1783.00	58700.64
1784.00	58721.70
1785.00	58654.61
1786.00	58710.00
1787.00	58659.29
1788.00	58603.89
1789.00	58541.48
1790.00	58464.24
1791.00	58461.90
1792.00	58457.22
1793.00	58495.45
1794.00	58273.10
1795.00	58159.19
1796.00	58039.04
1797.00	58216.92
1798.00	58242.67
1799.00	58280.90
1800.00	58078.05
1801.00	57987.55
1802.00	57885.35
1803.00	57886.13
1804.00	57775.34
1805.00	57705.13
1806.00	57599.80
1807.00	57451.57
1808.00	57187.87
1809.00	57049.78
1810.00	57047.44
1811.00	57050.56
1812.00	56951.48
1813.00	56813.38
1814.00	56733.03
1815.00	56737.71
1816.00	56651.89
1817.00	56597.27
1818.00	56407.69
1819.00	56210.31
1820.00	56060.51
1821.00	56069.87
1822.00	56168.96
1823.00	56210.31
1824.00	56203.28
1825.00	56151.79
1826.00	56079.24
1827.00	55966.89
1828.00	55931.00
1829.00	55847.52
1830.00	55571.34
1831.00	55519.85
1832.00	55474.60
1833.00	55519.07
1834.00	55359.13
1835.00	55125.08
1836.00	54855.14
1837.00	54664.77
1838.00	54647.61
1839.00	54848.89
1840.00	54856.70
1841.00	54865.28
1842.00	54797.40
1843.00	54621.86
1844.00	54397.95
1845.00	54180.28
1846.00	53971.97
1847.00	53755.86
1848.00	53577.20
1849.00	53358.75
1850.00	53295.56
1851.00	53141.86
1852.00	53205.06
1853.00	53176.19
1854.00	53077.89
1855.00	52950.72
1856.00	52773.62
1857.00	52808.73
1858.00	52800.93
1859.00	52598.08
1860.00	52357.78
1861.00	52105.79
1862.00	52056.64
1863.00	52073.02
1864.00	51889.68
1865.00	51750.02
1866.00	51512.85
1867.00	51604.91
1868.00	51555.76
1869.00	51403.63
1870.00	51203.12
1871.00	51071.27
1872.00	50891.83
1873.00	50621.11
1874.00	50579.76
1875.00	50612.52
1876.00	50808.35
1877.00	50486.14
1878.00	50150.66
1879.00	49776.17
1880.00	49692.69
1881.00	49414.95
1882.00	49191.04
1883.00	48990.53
1884.00	49071.67
1885.00	48877.41
1886.00	48691.72
1887.00	48566.12
1888.00	48541.15
1889.00	48400.72
1890.00	48243.12
1891.00	48047.30
1892.00	47824.17
1893.00	47505.07
1894.00	47268.68
1895.00	47207.83
1896.00	47210.95
1897.00	47253.86
1898.00	47329.53
1899.00	47206.26
1900.00	46946.47
1901.00	46503.32
1902.00	46287.21
1903.00	46208.42
1904.00	46177.99
1905.00	46198.27
1906.00	46092.17
1907.00	45939.25
1908.00	45700.52
1909.00	45397.81
1910.00	45218.37
1911.00	44919.56
1912.00	44650.40
1913.00	44361.73
1914.00	44157.33
1915.00	44186.19
1916.00	44142.50
1917.00	44076.19
1918.00	43682.20
1919.00	43503.54
1920.00	43316.29
1921.00	43360.76
1922.00	42938.69
1923.00	42457.32
1924.00	42125.74
1925.00	42152.27
1926.00	41958.78
1927.00	41439.18
1928.00	41250.38
1929.00	41315.14
1930.00	41526.56
1931.00	41339.32
1932.00	41102.93
1933.00	41049.88
1934.00	40928.17
1935.00	40900.86
1936.00	40500.63
1937.00	40137.85
1938.00	39830.46
1939.00	39775.06
1940.00	39593.28
1941.00	39242.98
1942.00	38840.41
1943.00	38548.62
1944.00	38380.10
1945.00	38216.27
1946.00	38014.98
1947.00	37823.84
1948.00	37663.12
1949.00	37606.95
1950.00	37722.41
1951.00	37539.07
1952.00	37163.81
1953.00	36616.90
1954.00	36377.39
1955.00	36361.78
1956.00	36286.89
1957.00	35938.15
1958.00	35627.63
1959.00	35449.75
1960.00	35299.96
1961.00	34929.37
1962.00	34486.23
1963.00	34441.76
1964.00	34385.59
1965.00	34302.11
1966.00	33979.90
1967.00	33698.25
1968.00	33479.02
1969.00	33290.22
1970.00	33128.72
1971.00	32653.59
1972.00	32428.12
1973.00	32250.24
1974.00	32328.26
1975.00	31953.77
1976.00	31594.11
1977.00	31182.18
1978.00	31099.48
1979.00	30980.11
1980.00	30849.04
1981.00	30464.41
1982.00	30254.54
1983.00	29978.36
1984.00	29820.77
1985.00	29699.84
1986.00	29629.62
1987.00	29680.33
1988.00	29400.25
1989.00	29292.58
1990.00	28912.64
1991.00	28653.62
1992.00	28292.40
1993.00	28048.20
1994.00	27876.56
1995.00	27702.58
1996.00	27551.23
1997.00	27597.26
1998.00	27442.78
1999.00	27314.05
2000.00	27030.07
2001.00	26782.75
2002.00	26679.77
2003.00	26441.81
2004.00	26287.34
2005.00	26050.16
2006.00	25797.38
2007.00	25596.10
2008.00	25215.37
2009.00	25014.09
2010.00	24813.58
2011.00	24678.61
2012.00	24516.33
2013.00	24387.60
2014.00	24288.52
2015.00	23949.14
2016.00	23743.17
2017.00	23479.47
2018.00	23501.32
2019.00	23307.05
2020.00	23300.03
2021.00	23148.68
2022.00	22998.88
2023.00	22774.19
2024.00	22494.89
2025.00	22369.28
2026.00	22331.83
2027.00	22236.65
2028.00	22092.32
2029.00	21912.10
2030.00	21853.58
2031.00	21605.49
2032.00	21394.84
2033.00	21182.63
2034.00	21056.24
2035.00	20776.16
2036.00	20542.88
2037.00	20367.34
2038.00	20180.10
2039.00	20046.69
2040.00	19896.11
2041.00	19913.28
2042.00	19814.20
2043.00	19792.35
2044.00	19711.21
2045.00	19663.62
2046.00	19516.17
2047.00	19255.59
>>>>>End Processed Spectral Data<<<<<
