SpectraSuite Data File
++++++++++++++++++++++++++++++++++++
Date: Thu Nov 16 14:05:09 EST 2017
User: cheriyan
Dark Spectrum Present: No
Reference Spectrum Present: No
Number of Sampled Component Spectra: 1
Spectrometers: USB2+H05261
Integration Time (usec): 100000 (USB2+H05261)
Spectra Averaged: 1 (USB2+H05261)
Boxcar Smoothing: 1 (USB2+H05261)
Correct for Electrical Dark: No (USB2+H05261)
Strobe/Lamp Enabled: No (USB2+H05261)
Correct for Detector Non-linearity: No (USB2+H05261)
Correct for Stray Light: No (USB2+H05261)
Number of Pixels in Processed Spectrum: 2048
>>>>>Begin Processed Spectral Data<<<<<
0.00	318.31
1.00	318.31
2.00	298.03
3.00	273.06
4.00	273.06
5.00	280.08
6.00	286.33
7.00	259.80
8.00	230.15
9.00	223.13
10.00	228.59
11.00	248.88
12.00	257.46
13.00	279.30
14.00	291.79
15.00	302.71
16.00	294.91
17.00	299.59
18.00	281.64
19.00	287.11
20.00	284.77
21.00	296.47
22.00	309.73
23.00	348.74
24.00	510.24
25.00	652.23
26.00	790.32
27.00	795.78
28.00	810.61
29.00	816.07
30.00	811.39
31.00	820.75
32.00	844.93
33.00	875.36
34.00	884.72
35.00	883.16
36.00	887.06
37.00	900.33
38.00	882.38
39.00	897.21
40.00	902.67
41.00	953.38
42.00	956.50
43.00	929.19
44.00	912.81
45.00	933.09
46.00	961.96
47.00	973.66
48.00	971.32
49.00	981.46
50.00	1001.75
51.00	991.61
52.00	1014.23
53.00	1007.99
54.00	1034.52
55.00	1022.03
56.00	1014.23
57.00	1006.43
58.00	1009.55
59.00	1006.43
60.00	1013.45
61.00	1015.01
62.00	1054.80
63.00	1075.87
64.00	1069.62
65.00	1057.14
66.00	1039.20
67.00	1048.56
68.00	1022.81
69.00	1002.53
70.00	1012.67
71.00	1050.12
72.00	1082.11
73.00	1082.89
74.00	1064.94
75.00	1091.47
76.00	1107.07
77.00	1128.92
78.00	1146.86
79.00	1143.74
80.00	1160.91
81.00	1143.74
82.00	1146.86
83.00	1125.80
84.00	1136.72
85.00	1139.84
86.00	1146.08
87.00	1165.59
88.00	1213.96
89.00	1228.00
90.00	1212.40
91.00	1176.51
92.00	1183.53
93.00	1174.17
94.00	1172.61
95.00	1139.84
96.00	1153.10
97.00	1154.66
98.00	1192.89
99.00	1204.60
100.00	1252.97
101.00	1250.63
102.00	1263.11
103.00	1284.95
104.00	1299.00
105.00	1284.95
106.00	1277.93
107.00	1316.16
108.00	1334.11
109.00	1313.82
110.00	1299.78
111.00	1317.72
112.00	1323.18
113.00	1338.79
114.00	1323.96
115.00	1345.03
116.00	1334.89
117.00	1360.63
118.00	1380.14
119.00	1396.52
120.00	1419.92
121.00	1403.54
122.00	1409.00
123.00	1391.06
124.00	1430.07
125.00	1433.19
126.00	1465.18
127.00	1456.59
128.00	1490.14
129.00	1481.56
130.00	1487.02
131.00	1478.44
132.00	1472.20
133.00	1488.58
134.00	1491.70
135.00	1513.55
136.00	1541.63
137.00	1533.05
138.00	1535.39
139.00	1549.43
140.00	1597.03
141.00	1607.95
142.00	1582.98
143.00	1581.42
144.00	1597.03
145.00	1641.50
146.00	1651.64
147.00	1651.64
148.00	1642.28
149.00	1628.23
150.00	1668.80
151.00	1688.31
152.00	1732.78
153.00	1735.90
154.00	1763.98
155.00	1783.49
156.00	1790.51
157.00	1742.92
158.00	1743.70
159.00	1741.36
160.00	1778.03
161.00	1795.97
162.00	1836.54
163.00	1831.08
164.00	1810.79
165.00	1813.14
166.00	1852.92
167.00	1818.60
168.00	1815.48
169.00	1806.89
170.00	1879.45
171.00	1888.03
172.00	1866.97
173.00	1885.69
174.00	1869.31
175.00	1917.68
176.00	1893.49
177.00	1982.43
178.00	2008.18
179.00	2065.13
180.00	2040.17
181.00	2028.46
182.00	2008.96
183.00	2023.00
184.00	2042.51
185.00	2071.37
186.00	2072.93
187.00	2068.25
188.00	2056.55
189.00	2035.49
190.00	2059.67
191.00	2047.19
192.00	2053.43
193.00	2065.13
194.00	2115.84
195.00	2196.98
196.00	2221.17
197.00	2235.21
198.00	2220.39
199.00	2217.27
200.00	2194.64
201.00	2204.00
202.00	2221.17
203.00	2259.40
204.00	2266.42
205.00	2298.41
206.00	2312.45
207.00	2341.32
208.00	2367.06
209.00	2384.23
210.00	2401.39
211.00	2382.67
212.00	2401.39
213.00	2392.81
214.00	2371.74
215.00	2374.08
216.00	2402.17
217.00	2427.14
218.00	2438.84
219.00	2442.74
220.00	2441.96
221.00	2485.65
222.00	2513.74
223.00	2570.69
224.00	2573.81
225.00	2594.09
226.00	2599.56
227.00	2622.96
228.00	2626.08
229.00	2626.08
230.00	2632.32
231.00	2647.15
232.00	2689.28
233.00	2674.45
234.00	2677.57
235.00	2653.39
236.00	2713.46
237.00	2751.69
238.00	2800.84
239.00	2774.32
240.00	2795.38
241.00	2830.49
242.00	2885.10
243.00	2839.07
244.00	2846.09
245.00	2853.89
246.00	2903.82
247.00	2945.17
248.00	2919.43
249.00	2931.91
250.00	2968.58
251.00	3041.14
252.00	3087.95
253.00	3069.22
254.00	3111.35
255.00	3142.56
256.00	3197.95
257.00	3191.71
258.00	3230.72
259.00	3245.54
260.00	3281.43
261.00	3318.88
262.00	3333.70
263.00	3338.38
264.00	3359.45
265.00	3375.05
266.00	3417.96
267.00	3418.74
268.00	3427.32
269.00	3451.51
270.00	3505.34
271.00	3549.81
272.00	3608.33
273.00	3610.67
274.00	3576.34
275.00	3545.13
276.00	3559.95
277.00	3586.48
278.00	3581.02
279.00	3621.59
280.00	3682.44
281.00	3732.37
282.00	3738.62
283.00	3749.54
284.00	3816.63
285.00	3790.89
286.00	3796.35
287.00	3745.64
288.00	3751.10
289.00	3745.64
290.00	3779.18
291.00	3802.59
292.00	3845.50
293.00	3880.61
294.00	3919.62
295.00	3971.11
296.00	3978.13
297.00	4016.36
298.00	4037.42
299.00	4074.09
300.00	4060.05
301.00	4016.36
302.00	4000.76
303.00	3999.98
304.00	4039.76
305.00	4065.51
306.00	4084.23
307.00	4092.04
308.00	4025.72
309.00	4030.40
310.00	4028.84
311.00	4116.22
312.00	4075.65
313.00	4133.39
314.00	4147.43
315.00	4219.21
316.00	4218.43
317.00	4223.89
318.00	4260.56
319.00	4255.87
320.00	4291.76
321.00	4266.02
322.00	4241.05
323.00	4265.24
324.00	4351.84
325.00	4458.72
326.00	4459.50
327.00	4476.66
328.00	4486.03
329.00	4548.44
330.00	4534.40
331.00	4525.04
332.00	4500.85
333.00	4539.08
334.00	4583.55
335.00	4592.91
336.00	4622.56
337.00	4633.48
338.00	4642.84
339.00	4684.97
340.00	4734.90
341.00	4833.21
342.00	4813.70
343.00	4833.99
344.00	4806.68
345.00	4844.13
346.00	4876.90
347.00	4910.44
348.00	4975.98
349.00	5001.72
350.00	5057.90
351.00	5005.63
352.00	4990.02
353.00	4967.40
354.00	4949.45
355.00	4974.42
356.00	5020.45
357.00	5100.81
358.00	5124.21
359.00	5174.92
360.00	5262.30
361.00	5322.38
362.00	5284.93
363.00	5242.80
364.00	5268.55
365.00	5259.96
366.00	5264.64
367.00	5256.84
368.00	5341.10
369.00	5402.74
370.00	5447.99
371.00	5486.22
372.00	5480.75
373.00	5453.45
374.00	5447.21
375.00	5504.16
376.00	5559.55
377.00	5575.16
378.00	5596.22
379.00	5586.08
380.00	5617.29
381.00	5655.51
382.00	5749.14
383.00	5840.42
384.00	5953.54
385.00	5930.14
386.00	5954.32
387.00	5987.87
388.00	6102.56
389.00	6153.27
390.00	6158.73
391.00	6186.82
392.00	6203.20
393.00	6246.11
394.00	6277.32
395.00	6328.81
396.00	6335.83
397.00	6423.99
398.00	6475.48
399.00	6597.97
400.00	6625.28
401.00	6644.78
402.00	6647.12
403.00	6720.46
404.00	6785.21
405.00	6860.89
406.00	6877.27
407.00	6893.66
408.00	6866.35
409.00	6812.52
410.00	6855.43
411.00	6900.68
412.00	6949.83
413.00	6925.65
414.00	6873.37
415.00	6840.61
416.00	6861.67
417.00	6903.80
418.00	6995.86
419.00	7006.00
420.00	7023.95
421.00	7098.84
422.00	7144.88
423.00	7110.55
424.00	7022.39
425.00	7062.96
426.00	7158.92
427.00	7191.69
428.00	7191.69
429.00	7133.17
430.00	7133.17
431.00	7100.41
432.00	7121.47
433.00	7137.85
434.00	7168.28
435.00	7285.31
436.00	7345.38
437.00	7407.02
438.00	7340.70
439.00	7403.11
440.00	7419.50
441.00	7512.34
442.00	7502.20
443.00	7605.96
444.00	7652.77
445.00	7691.78
446.00	7652.77
447.00	7740.15
448.00	7825.97
449.00	7875.12
450.00	7903.99
451.00	7901.65
452.00	7930.52
453.00	7879.80
454.00	7911.79
455.00	7928.95
456.00	8028.04
457.00	8090.45
458.00	8144.28
459.00	8110.74
460.00	8123.22
461.00	8163.01
462.00	8174.71
463.00	8147.40
464.00	8157.55
465.00	8266.77
466.00	8370.54
467.00	8458.70
468.00	8480.54
469.00	8517.99
470.00	8518.77
471.00	8495.36
472.00	8530.47
473.00	8569.48
474.00	8640.48
475.00	8678.71
476.00	8770.77
477.00	8901.84
478.00	8948.65
479.00	9085.96
480.00	9022.77
481.00	9116.39
482.00	8948.65
483.00	9011.84
484.00	9057.87
485.00	9204.55
486.00	9302.85
487.00	9271.64
488.00	9288.03
489.00	9280.22
490.00	9271.64
491.00	9317.67
492.00	9339.52
493.00	9401.93
494.00	9370.72
495.00	9424.56
496.00	9492.43
497.00	9568.11
498.00	9640.67
499.00	9717.90
500.00	9739.75
501.00	9749.11
502.00	9726.49
503.00	9800.60
504.00	9820.11
505.00	9846.63
506.00	9880.18
507.00	9941.82
508.00	10066.64
509.00	10133.74
510.00	10207.08
511.00	10203.18
512.00	10232.04
513.00	10260.13
514.00	10233.60
515.00	10295.24
516.00	10373.25
517.00	10461.41
518.00	10468.44
519.00	10412.26
520.00	10551.92
521.00	10540.99
522.00	10561.28
523.00	10490.28
524.00	10631.49
525.00	10795.33
526.00	10846.82
527.00	10856.96
528.00	10813.28
529.00	10856.18
530.00	10970.09
531.00	10984.13
532.00	10946.69
533.00	10923.28
534.00	10945.91
535.00	11181.52
536.00	11143.29
537.00	11201.80
538.00	11101.94
539.00	11105.84
540.00	11204.14
541.00	11200.24
542.00	11360.96
543.00	11357.06
544.00	11440.54
545.00	11357.84
546.00	11318.05
547.00	11369.54
548.00	11475.65
549.00	11651.19
550.00	11787.72
551.00	11900.06
552.00	11915.67
553.00	11847.01
554.00	11822.83
555.00	11916.45
556.00	11975.74
557.00	12102.91
558.00	12227.74
559.00	12397.82
560.00	12431.37
561.00	12458.67
562.00	12482.08
563.00	12559.31
564.00	12521.87
565.00	12574.14
566.00	12708.33
567.00	12706.77
568.00	12727.83
569.00	12595.20
570.00	12836.28
571.00	12974.37
572.00	13156.93
573.00	13142.89
574.00	13229.49
575.00	13339.49
576.00	13664.05
577.00	13710.86
578.00	13780.29
579.00	13638.30
580.00	13756.11
581.00	13781.07
582.00	14013.57
583.00	14026.83
584.00	14197.69
585.00	14207.83
586.00	14391.17
587.00	14457.49
588.00	14398.20
589.00	14423.94
590.00	14527.71
591.00	14781.26
592.00	15023.12
593.00	15196.32
594.00	15279.02
595.00	15367.96
596.00	15510.73
597.00	15692.51
598.00	15843.87
599.00	15960.11
600.00	16101.33
601.00	16118.49
602.00	16224.59
603.00	16266.72
604.00	16506.24
605.00	16758.24
606.00	16921.29
607.00	16965.76
608.00	17016.47
609.00	17032.86
610.00	17136.62
611.00	17138.96
612.00	17378.48
613.00	17514.23
614.00	17596.93
615.00	17763.89
616.00	18019.78
617.00	18303.77
618.00	18455.12
619.00	18562.79
620.00	18775.00
621.00	18936.49
622.00	19078.49
623.00	19300.84
624.00	19454.53
625.00	19472.48
626.00	19395.24
627.00	19403.04
628.00	19697.17
629.00	20063.07
630.00	20471.11
631.00	20584.23
632.00	20462.52
633.00	20680.19
634.00	20814.38
635.00	21124.90
636.00	21150.64
637.00	21378.45
638.00	21626.55
639.00	21763.86
640.00	21940.18
641.00	22021.32
642.00	22225.73
643.00	22388.78
644.00	22714.90
645.00	22783.55
646.00	22913.06
647.00	22935.69
648.00	23134.64
649.00	23326.56
650.00	23540.33
651.00	23734.59
652.00	23869.56
653.00	23992.05
654.00	24159.01
655.00	24408.67
656.00	24606.05
657.00	24810.46
658.00	24927.49
659.00	25092.10
660.00	25230.98
661.00	25371.41
662.00	25468.93
663.00	25592.20
664.00	25893.35
665.00	26050.16
666.00	26234.28
667.00	26219.46
668.00	26335.71
669.00	26471.46
670.00	26618.13
671.00	26916.94
672.00	27032.41
673.00	27262.56
674.00	27396.75
675.00	27605.84
676.00	27630.02
677.00	27780.60
678.00	27942.10
679.00	28224.52
680.00	28447.65
681.00	28604.47
682.00	28850.22
683.00	28853.34
684.00	29195.06
685.00	29287.90
686.00	29667.85
687.00	29849.63
688.00	30028.29
689.00	30052.48
690.00	30100.85
691.00	30323.20
692.00	30558.81
693.00	30658.68
694.00	30732.01
695.00	30810.03
696.00	30981.67
697.00	31250.05
698.00	31498.93
699.00	31613.62
700.00	31734.54
701.00	31942.85
702.00	32194.85
703.00	32459.33
704.00	32694.94
705.00	32999.21
706.00	33285.54
707.00	33469.66
708.00	33596.05
709.00	33648.32
710.00	33795.78
711.00	33924.50
712.00	34121.89
713.00	34197.57
714.00	34307.57
715.00	34288.85
716.00	34358.28
717.00	34677.38
718.00	34785.82
719.00	34961.36
720.00	35001.15
721.00	35190.73
722.00	35448.97
723.00	35593.31
724.00	35680.69
725.00	35598.77
726.00	35532.45
727.00	35800.05
728.00	36045.03
729.00	36234.61
730.00	36384.41
731.00	36399.23
732.00	36489.73
733.00	36405.47
734.00	36498.31
735.00	36548.25
736.00	36563.85
737.00	36708.96
738.00	36814.29
739.00	36999.97
740.00	37159.91
741.00	37440.77
742.00	37592.90
743.00	37593.68
744.00	37680.28
745.00	37929.94
746.00	38222.51
747.00	38528.34
748.00	38788.92
749.00	39054.18
750.00	39046.38
751.00	38963.68
752.00	39158.72
753.00	39212.56
754.00	39437.25
755.00	39432.57
756.00	39631.51
757.00	39700.95
758.00	39693.15
759.00	39874.15
760.00	39984.93
761.00	40257.21
762.00	40295.44
763.00	40348.50
764.00	40301.68
765.00	40364.10
766.00	40635.60
767.00	41011.65
768.00	41205.91
769.00	41295.63
770.00	41356.49
771.00	41620.19
772.00	41984.53
773.00	42036.80
774.00	42197.52
775.00	42157.73
776.00	42281.00
777.00	42466.68
778.00	42563.42
779.00	42827.90
780.00	42675.77
781.00	42863.01
782.00	42930.89
783.00	43161.82
784.00	43169.62
785.00	43195.37
786.00	43382.61
787.00	43684.54
788.00	44062.15
789.00	44432.73
790.00	44468.62
791.00	44466.28
792.00	44324.29
793.00	44384.36
794.00	44510.75
795.00	44682.39
796.00	45054.53
797.00	45152.83
798.00	45188.72
799.00	45107.58
800.00	45253.48
801.00	45470.37
802.00	45702.86
803.00	45774.64
804.00	45897.13
805.00	46010.25
806.00	46138.20
807.00	46294.24
808.00	46484.60
809.00	46573.54
810.00	46604.75
811.00	46675.74
812.00	46722.55
813.00	46860.65
814.00	46905.90
815.00	47146.97
816.00	47362.30
817.00	47435.64
818.00	47533.94
819.00	47557.35
820.00	47626.78
821.00	47775.80
822.00	47794.52
823.00	48011.41
824.00	48083.19
825.00	48452.99
826.00	48541.15
827.00	48729.95
828.00	48617.61
829.00	48615.27
830.00	48592.64
831.00	48645.69
832.00	48757.26
833.00	48772.86
834.00	48869.61
835.00	48967.91
836.00	49116.92
837.00	49299.48
838.00	49519.49
839.00	49646.66
840.00	49592.05
841.00	49654.47
842.00	49954.05
843.00	50361.31
844.00	50564.15
845.00	50596.14
846.00	50451.03
847.00	50584.44
848.00	50589.90
849.00	50791.19
850.00	50750.62
851.00	50796.65
852.00	50852.82
853.00	50830.97
854.00	50864.52
855.00	50880.91
856.00	51153.19
857.00	51331.85
858.00	51550.30
859.00	51489.45
860.00	51559.66
861.00	51622.86
862.00	51714.14
863.00	51669.67
864.00	51634.56
865.00	51548.74
866.00	51682.15
867.00	51856.13
868.00	52097.20
869.00	52248.56
870.00	52205.65
871.00	52335.94
872.00	52296.93
873.00	52477.93
874.00	52488.07
875.00	52703.40
876.00	52733.83
877.00	52812.63
878.00	52938.24
879.00	53073.99
880.00	53233.92
881.00	53110.66
882.00	53029.52
883.00	52926.53
884.00	52962.42
885.00	53002.99
886.00	53035.76
887.00	53105.98
888.00	53254.99
889.00	53290.10
890.00	53435.21
891.00	53431.31
892.00	53645.08
893.00	53580.32
894.00	53557.70
895.00	53549.12
896.00	53602.95
897.00	53723.88
898.00	53725.44
899.00	53854.17
900.00	53983.68
901.00	54181.06
902.00	54177.94
903.00	54133.47
904.00	54223.19
905.00	54451.78
906.00	54607.82
907.00	54599.24
908.00	54434.62
909.00	54607.82
910.00	54605.48
911.00	54757.61
912.00	54622.64
913.00	54681.16
914.00	54645.27
915.00	54692.86
916.00	54619.52
917.00	54695.20
918.00	54720.94
919.00	54778.68
920.00	54708.46
921.00	54705.34
922.00	54763.85
923.00	54888.68
924.00	54905.85
925.00	54969.04
926.00	55146.14
927.00	55278.77
928.00	55402.82
929.00	55493.32
930.00	55578.36
931.00	55626.73
932.00	55627.51
933.00	55591.62
934.00	55553.40
935.00	55599.43
936.00	55693.83
937.00	55753.90
938.00	55650.92
939.00	55668.08
940.00	55705.53
941.00	55721.13
942.00	55851.42
943.00	55907.60
944.00	56172.08
945.00	56203.28
946.00	56280.52
947.00	56188.46
948.00	56154.13
949.00	56204.06
950.00	56356.20
951.00	56449.04
952.00	56387.41
953.00	56222.79
954.00	56320.31
955.00	56497.41
956.00	56715.86
957.00	56652.67
958.00	56801.68
959.00	56861.75
960.00	56953.04
961.00	56790.76
962.00	56923.39
963.00	56927.29
964.00	57139.50
965.00	57095.03
966.00	57297.87
967.00	57446.11
968.00	57521.79
969.00	57379.79
970.00	57331.42
971.00	57442.21
972.00	57645.05
973.00	57462.49
974.00	57470.29
975.00	57538.17
976.00	57709.03
977.00	57685.62
978.00	57584.98
979.00	57684.06
980.00	57697.33
981.00	57960.25
982.00	58009.40
983.00	57988.33
984.00	57855.70
985.00	57763.64
986.00	57807.33
987.00	57783.93
988.00	57936.06
989.00	57965.71
990.00	58078.83
991.00	57978.97
992.00	58115.50
993.00	58124.08
994.00	58355.80
995.00	58479.85
996.00	58689.71
997.00	58801.28
998.00	58869.93
999.00	58919.09
1000.00	58908.16
1001.00	58922.21
1002.00	58779.43
1003.00	58650.70
1004.00	58625.74
1005.00	58738.86
1006.00	58882.42
1007.00	58937.81
1008.00	58965.90
1009.00	58862.91
1010.00	58884.76
1011.00	58779.43
1012.00	58889.44
1013.00	58874.62
1014.00	58958.87
1015.00	58948.73
1016.00	59043.13
1017.00	59146.12
1018.00	59287.33
1019.00	59353.65
1020.00	59389.53
1021.00	59402.80
1022.00	59316.20
1023.00	59267.05
1024.00	59284.21
1025.00	59405.92
1026.00	59614.22
1027.00	59705.51
1028.00	59766.36
1029.00	59663.38
1030.00	59673.52
1031.00	59777.28
1032.00	59902.11
1033.00	60058.15
1034.00	60012.12
1035.00	60131.48
1036.00	60089.35
1037.00	60169.71
1038.00	60142.41
1039.00	60111.98
1040.00	60040.20
1041.00	60002.75
1042.00	60063.61
1043.00	60232.13
1044.00	60346.81
1045.00	60512.21
1046.00	60546.54
1047.00	60579.31
1048.00	60504.41
1049.00	60438.87
1050.00	60505.19
1051.00	60498.17
1052.00	60537.18
1053.00	60553.56
1054.00	60566.04
1055.00	60551.22
1056.00	60475.54
1057.00	60511.43
1058.00	60616.75
1059.00	60670.59
1060.00	60881.23
1061.00	60942.09
1062.00	61101.25
1063.00	60978.76
1064.00	60882.80
1065.00	60756.41
1066.00	60818.82
1067.00	60954.57
1068.00	60983.44
1069.00	60977.20
1070.00	60938.19
1071.00	61016.21
1072.00	61086.42
1073.00	61185.50
1074.00	61276.01
1075.00	61273.66
1076.00	61314.23
1077.00	61300.19
1078.00	61366.51
1079.00	61410.20
1080.00	61463.25
1081.00	61515.52
1082.00	61551.41
1083.00	61524.10
1084.00	61486.65
1085.00	61476.51
1086.00	61495.24
1087.00	61485.09
1088.00	61434.38
1089.00	61528.00
1090.00	61583.40
1091.00	61648.93
1092.00	61666.87
1093.00	61723.83
1094.00	61815.11
1095.00	61818.23
1096.00	61858.02
1097.00	61839.29
1098.00	61887.67
1099.00	61864.26
1100.00	61868.94
1101.00	61872.06
1102.00	61905.61
1103.00	61937.60
1104.00	61966.46
1105.00	62000.01
1106.00	62036.68
1107.00	61985.19
1108.00	62015.61
1109.00	62035.12
1110.00	62171.65
1111.00	62159.95
1112.00	62166.97
1113.00	62102.99
1114.00	62122.50
1115.00	62145.90
1116.00	62181.01
1117.00	62117.04
1118.00	62065.55
1119.00	62069.45
1120.00	62163.85
1121.00	62269.95
1122.00	62320.66
1123.00	62275.41
1124.00	62246.55
1125.00	62145.12
1126.00	62213.78
1127.00	62145.90
1128.00	62173.99
1129.00	62218.46
1130.00	62293.36
1131.00	62341.73
1132.00	62312.86
1133.00	62287.90
1134.00	62284.00
1135.00	62299.60
1136.00	62268.39
1137.00	62242.65
1138.00	62265.27
1139.00	62462.66
1140.00	62591.39
1141.00	62663.94
1142.00	62595.29
1143.00	62582.02
1144.00	62569.54
1145.00	62640.54
1146.00	62711.53
1147.00	62669.40
1148.00	62674.87
1149.00	62630.40
1150.00	62699.83
1151.00	62702.95
1152.00	62667.84
1153.00	62629.62
1154.00	62468.90
1155.00	62450.17
1156.00	62482.16
1157.00	62541.45
1158.00	62584.36
1159.00	62588.27
1160.00	62697.49
1161.00	62749.76
1162.00	62752.10
1163.00	62704.51
1164.00	62624.93
1165.00	62627.27
1166.00	62685.79
1167.00	62818.42
1168.00	62875.37
1169.00	62939.35
1170.00	62943.25
1171.00	62942.47
1172.00	62781.75
1173.00	62727.92
1174.00	62699.05
1175.00	62876.93
1176.00	62835.58
1177.00	62859.77
1178.00	62800.47
1179.00	62830.12
1180.00	62872.25
1181.00	62863.67
1182.00	62915.16
1183.00	62836.36
1184.00	62832.46
1185.00	62874.59
1186.00	62947.93
1187.00	62987.72
1188.00	62993.18
1189.00	62948.71
1190.00	62917.50
1191.00	62835.58
1192.00	62784.87
1193.00	62775.51
1194.00	62817.64
1195.00	62898.78
1196.00	62944.81
1197.00	62943.25
1198.00	62960.41
1199.00	62976.79
1200.00	63032.97
1201.00	63107.86
1202.00	63088.36
1203.00	63090.70
1204.00	63006.44
1205.00	63064.17
1206.00	62972.11
1207.00	62978.35
1208.00	62941.69
1209.00	63032.97
1210.00	63094.60
1211.00	63092.26
1212.00	63114.89
1213.00	63171.06
1214.00	63181.98
1215.00	63167.16
1216.00	63128.93
1217.00	63125.03
1218.00	63114.11
1219.00	62992.40
1220.00	63054.03
1221.00	63092.26
1222.00	63264.68
1223.00	63295.11
1224.00	63302.91
1225.00	63268.58
1226.00	63220.99
1227.00	63171.06
1228.00	63040.77
1229.00	62909.70
1230.00	62890.19
1231.00	63007.22
1232.00	63138.29
1233.00	63199.93
1234.00	63161.70
1235.00	63139.85
1236.00	63186.66
1237.00	63229.57
1238.00	63278.72
1239.00	63352.84
1240.00	63406.67
1241.00	63588.45
1242.00	63547.10
1243.00	63534.62
1244.00	63326.31
1245.00	63315.39
1246.00	63327.87
1247.00	63404.33
1248.00	63436.32
1249.00	63540.08
1250.00	63601.72
1251.00	63671.93
1252.00	63674.27
1253.00	63684.42
1254.00	63688.32
1255.00	63652.43
1256.00	63719.52
1257.00	63699.24
1258.00	63673.49
1259.00	63578.31
1260.00	63614.98
1261.00	63679.74
1262.00	63802.22
1263.00	63898.97
1264.00	63895.84
1265.00	63807.68
1266.00	63690.66
1267.00	63759.31
1268.00	63780.38
1269.00	63870.88
1270.00	63916.91
1271.00	64026.91
1272.00	64081.53
1273.00	64024.57
1274.00	64044.08
1275.00	64008.97
1276.00	64003.51
1277.00	63968.40
1278.00	63974.64
1279.00	64029.26
1280.00	63913.01
1281.00	63965.28
1282.00	64030.82
1283.00	64213.38
1284.00	64130.68
1285.00	64118.98
1286.00	64062.80
1287.00	64132.24
1288.00	64134.58
1289.00	64168.91
1290.00	64136.14
1291.00	64150.18
1292.00	64231.32
1293.00	64336.65
1294.00	64355.37
1295.00	64307.78
1296.00	64237.56
1297.00	64142.38
1298.00	64200.11
1299.00	64228.20
1300.00	64317.14
1301.00	64233.66
1302.00	64227.42
1303.00	64267.99
1304.00	64377.22
1305.00	64398.28
1306.00	64364.73
1307.00	64288.27
1308.00	64286.71
1309.00	64282.03
1310.00	64360.83
1311.00	64373.31
1312.00	64454.45
1313.00	64519.99
1314.00	64626.87
1315.00	64687.73
1316.00	64687.73
1317.00	64671.34
1318.00	64562.90
1319.00	64523.11
1320.00	64529.35
1321.00	64658.86
1322.00	64754.82
1323.00	64818.80
1324.00	64860.15
1325.00	64847.66
1326.00	64768.08
1327.00	64693.97
1328.00	64587.08
1329.00	64640.14
1330.00	64649.50
1331.00	64751.70
1332.00	64733.76
1333.00	64712.69
1334.00	64785.25
1335.00	64805.53
1336.00	64859.37
1337.00	64805.53
1338.00	64855.46
1339.00	64975.61
1340.00	65041.15
1341.00	65128.53
1342.00	65016.96
1343.00	64971.71
1344.00	64870.29
1345.00	64889.01
1346.00	64806.31
1347.00	64850.78
1348.00	64782.13
1349.00	64860.93
1350.00	64768.08
1351.00	64851.56
1352.00	64756.38
1353.00	64792.27
1354.00	64623.75
1355.00	64700.21
1356.00	64750.92
1357.00	64924.90
1358.00	64940.50
1359.00	64974.83
1360.00	65011.50
1361.00	65002.92
1362.00	65004.48
1363.00	64930.36
1364.00	64871.85
1365.00	64878.87
1366.00	64967.03
1367.00	65102.78
1368.00	65143.35
1369.00	65139.45
1370.00	65052.85
1371.00	64943.62
1372.00	64829.72
1373.00	64829.72
1374.00	64874.19
1375.00	64924.90
1376.00	65005.26
1377.00	64931.14
1378.00	64962.35
1379.00	64932.70
1380.00	64989.66
1381.00	65070.79
1382.00	65072.35
1383.00	65141.01
1384.00	65002.14
1385.00	64988.88
1386.00	64945.18
1387.00	65066.89
1388.00	65139.45
1389.00	65070.79
1390.00	65055.97
1391.00	64988.88
1392.00	65102.78
1393.00	65060.65
1394.00	65009.94
1395.00	64886.67
1396.00	64920.22
1397.00	64910.08
1398.00	64850.78
1399.00	64721.27
1400.00	64768.86
1401.00	64806.31
1402.00	64875.75
1403.00	64852.34
1404.00	64864.83
1405.00	64824.26
1406.00	64781.35
1407.00	64822.70
1408.00	64779.01
1409.00	64781.35
1410.00	64731.42
1411.00	64693.97
1412.00	64727.52
1413.00	64793.83
1414.00	64992.00
1415.00	65026.32
1416.00	65033.35
1417.00	64945.18
1418.00	64942.06
1419.00	64894.47
1420.00	64893.69
1421.00	64838.30
1422.00	64859.37
1423.00	64871.07
1424.00	64877.31
1425.00	64833.62
1426.00	64776.67
1427.00	64795.39
1428.00	64796.95
1429.00	64768.08
1430.00	64843.76
1431.00	64924.12
1432.00	64970.93
1433.00	64869.51
1434.00	64808.65
1435.00	64752.48
1436.00	64778.23
1437.00	64715.81
1438.00	64754.04
1439.00	64740.78
1440.00	64760.28
1441.00	64737.66
1442.00	64721.27
1443.00	64718.93
1444.00	64690.85
1445.00	64666.66
1446.00	64700.21
1447.00	64697.87
1448.00	64637.79
1449.00	64571.48
1450.00	64592.54
1451.00	64676.80
1452.00	64683.83
1453.00	64746.24
1454.00	64760.28
1455.00	64832.06
1456.00	64757.94
1457.00	64762.62
1458.00	64748.58
1459.00	64697.87
1460.00	64594.10
1461.00	64500.48
1462.00	64459.13
1463.00	64431.83
1464.00	64520.77
1465.00	64610.49
1466.00	64715.81
1467.00	64559.78
1468.00	64460.69
1469.00	64356.15
1470.00	64406.86
1471.00	64425.59
1472.00	64436.51
1473.00	64461.47
1474.00	64548.07
1475.00	64647.94
1476.00	64707.23
1477.00	64693.19
1478.00	64612.83
1479.00	64475.52
1480.00	64452.89
1481.00	64565.24
1482.00	64704.11
1483.00	64722.83
1484.00	64596.45
1485.00	64467.72
1486.00	64363.17
1487.00	64261.75
1488.00	64250.83
1489.00	64162.67
1490.00	64148.62
1491.00	64141.60
1492.00	64264.87
1493.00	64337.43
1494.00	64396.72
1495.00	64402.96
1496.00	64397.50
1497.00	64265.65
1498.00	64202.45
1499.00	64146.28
1500.00	64168.13
1501.00	64104.93
1502.00	64165.01
1503.00	64189.97
1504.00	64255.51
1505.00	64274.23
1506.00	64319.48
1507.00	64379.56
1508.00	64362.39
1509.00	64409.98
1510.00	64360.05
1511.00	64281.25
1512.00	64096.35
1513.00	63974.64
1514.00	63941.10
1515.00	63993.37
1516.00	64085.43
1517.00	64136.14
1518.00	64205.58
1519.00	64161.89
1520.00	64196.21
1521.00	64109.61
1522.00	64062.80
1523.00	64048.76
1524.00	64123.66
1525.00	64233.66
1526.00	64114.29
1527.00	63897.41
1528.00	63755.41
1529.00	63727.33
1530.00	63781.16
1531.00	63712.50
1532.00	63810.81
1533.00	63911.45
1534.00	64030.82
1535.00	63984.79
1536.00	63928.61
1537.00	63945.00
1538.00	63919.25
1539.00	63986.35
1540.00	63970.74
1541.00	64007.41
1542.00	63968.40
1543.00	63930.95
1544.00	63963.72
1545.00	63961.38
1546.00	63944.22
1547.00	63813.93
1548.00	63849.81
1549.00	63879.46
1550.00	63928.61
1551.00	63885.70
1552.00	63925.49
1553.00	63999.61
1554.00	64058.12
1555.00	63975.42
1556.00	63938.75
1557.00	63806.12
1558.00	63832.65
1559.00	63785.06
1560.00	63786.62
1561.00	63817.83
1562.00	63908.33
1563.00	63916.13
1564.00	63879.46
1565.00	63862.30
1566.00	63871.66
1567.00	63891.94
1568.00	63832.65
1569.00	63733.57
1570.00	63609.52
1571.00	63447.24
1572.00	63410.57
1573.00	63437.10
1574.00	63503.42
1575.00	63527.60
1576.00	63514.34
1577.00	63428.52
1578.00	63427.74
1579.00	63355.96
1580.00	63395.75
1581.00	63400.43
1582.00	63411.35
1583.00	63316.17
1584.00	63260.00
1585.00	63306.81
1586.00	63370.78
1587.00	63355.18
1588.00	63352.84
1589.00	63416.04
1590.00	63444.12
1591.00	63404.33
1592.00	63334.12
1593.00	63229.57
1594.00	63212.41
1595.00	63214.75
1596.00	63352.84
1597.00	63424.62
1598.00	63427.74
1599.00	63391.07
1600.00	63375.47
1601.00	63382.49
1602.00	63393.41
1603.00	63238.15
1604.00	63209.29
1605.00	63115.67
1606.00	63147.65
1607.00	63021.26
1608.00	63008.78
1609.00	62950.27
1610.00	62994.74
1611.00	63057.15
1612.00	63163.26
1613.00	63259.22
1614.00	63286.53
1615.00	63404.33
1616.00	63416.04
1617.00	63394.19
1618.00	63201.49
1619.00	63076.66
1620.00	62996.30
1621.00	62946.37
1622.00	63014.24
1623.00	62980.70
1624.00	63021.26
1625.00	62963.53
1626.00	63066.51
1627.00	63045.45
1628.00	63034.53
1629.00	62982.26
1630.00	63050.91
1631.00	63109.42
1632.00	63110.99
1633.00	63123.47
1634.00	63158.58
1635.00	63171.06
1636.00	63124.25
1637.00	63044.67
1638.00	62898.00
1639.00	62840.26
1640.00	62819.98
1641.00	62915.94
1642.00	63018.14
1643.00	63131.27
1644.00	63172.62
1645.00	63132.83
1646.00	63049.35
1647.00	62964.31
1648.00	62905.02
1649.00	62805.94
1650.00	62741.96
1651.00	62598.41
1652.00	62599.97
1653.00	62689.69
1654.00	62754.44
1655.00	62687.35
1656.00	62577.34
1657.00	62547.70
1658.00	62593.73
1659.00	62643.66
1660.00	62696.71
1661.00	62706.85
1662.00	62729.48
1663.00	62820.76
1664.00	62894.88
1665.00	62933.88
1666.00	62864.45
1667.00	62783.31
1668.00	62819.20
1669.00	62829.34
1670.00	62811.40
1671.00	62742.74
1672.00	62773.95
1673.00	62924.52
1674.00	62961.19
1675.00	62966.65
1676.00	62862.11
1677.00	62756.00
1678.00	62496.20
1679.00	62351.09
1680.00	62313.64
1681.00	62485.28
1682.00	62553.16
1683.00	62567.20
1684.00	62556.28
1685.00	62592.17
1686.00	62535.21
1687.00	62443.93
1688.00	62372.16
1689.00	62409.60
1690.00	62277.75
1691.00	62261.37
1692.00	62237.97
1693.00	62362.79
1694.00	62382.30
1695.00	62397.90
1696.00	62435.35
1697.00	62401.02
1698.00	62270.73
1699.00	62163.85
1700.00	62094.41
1701.00	62076.47
1702.00	62050.72
1703.00	62114.70
1704.00	62146.68
1705.00	62206.76
1706.00	62123.28
1707.00	62079.59
1708.00	62010.15
1709.00	61972.70
1710.00	62028.10
1711.00	62005.47
1712.00	61995.33
1713.00	61965.68
1714.00	61956.32
1715.00	61918.87
1716.00	61823.69
1717.00	61730.85
1718.00	61676.24
1719.00	61600.56
1720.00	61578.71
1721.00	61559.21
1722.00	61552.19
1723.00	61539.71
1724.00	61536.58
1725.00	61520.20
1726.00	61481.19
1727.00	61422.68
1728.00	61369.63
1729.00	61354.02
1730.00	61334.52
1731.00	61372.75
1732.00	61364.95
1733.00	61459.35
1734.00	61530.34
1735.00	61589.64
1736.00	61486.65
1737.00	61485.87
1738.00	61349.34
1739.00	61445.30
1740.00	61347.78
1741.00	61419.56
1742.00	61320.48
1743.00	61139.47
1744.00	61050.53
1745.00	60919.46
1746.00	61009.96
1747.00	60910.10
1748.00	60921.02
1749.00	60848.47
1750.00	60797.76
1751.00	60670.59
1752.00	60537.18
1753.00	60500.51
1754.00	60426.39
1755.00	60438.87
1756.00	60386.60
1757.00	60394.40
1758.00	60349.15
1759.00	60331.21
1760.00	60285.96
1761.00	60207.94
1762.00	60190.00
1763.00	60072.97
1764.00	59996.51
1765.00	59829.55
1766.00	59884.17
1767.00	59890.41
1768.00	59939.56
1769.00	59930.98
1770.00	59995.73
1771.00	59997.29
1772.00	59884.95
1773.00	59806.93
1774.00	59761.68
1775.00	59744.51
1776.00	59700.82
1777.00	59696.92
1778.00	59704.73
1779.00	59632.17
1780.00	59597.84
1781.00	59626.71
1782.00	59728.91
1783.00	59686.00
1784.00	59614.22
1785.00	59558.05
1786.00	59430.10
1787.00	59394.21
1788.00	59348.18
1789.00	59471.45
1790.00	59402.02
1791.00	59295.13
1792.00	59153.14
1793.00	59076.68
1794.00	59010.37
1795.00	59024.41
1796.00	58982.28
1797.00	58915.18
1798.00	58876.96
1799.00	58934.69
1800.00	58928.45
1801.00	58813.76
1802.00	58672.55
1803.00	58602.33
1804.00	58624.18
1805.00	58569.57
1806.00	58470.48
1807.00	58221.61
1808.00	58103.80
1809.00	57903.29
1810.00	57787.83
1811.00	57627.89
1812.00	57612.29
1813.00	57616.97
1814.00	57608.39
1815.00	57510.08
1816.00	57341.56
1817.00	57247.94
1818.00	57217.52
1819.00	57251.84
1820.00	57132.48
1821.00	57072.40
1822.00	56832.11
1823.00	56830.55
1824.00	56870.34
1825.00	57014.67
1826.00	56993.60
1827.00	56942.89
1828.00	56818.06
1829.00	56712.74
1830.00	56244.63
1831.00	56271.94
1832.00	56199.38
1833.00	56361.66
1834.00	56028.52
1835.00	55856.88
1836.00	55579.14
1837.00	55601.77
1838.00	55448.85
1839.00	55572.12
1840.00	55473.04
1841.00	55480.84
1842.00	55346.65
1843.00	55311.54
1844.00	55288.91
1845.00	55189.05
1846.00	54988.55
1847.00	54685.84
1848.00	54508.74
1849.00	54398.73
1850.00	54376.11
1851.00	54261.42
1852.00	54230.99
1853.00	54060.91
1854.00	53922.04
1855.00	53679.41
1856.00	53656.00
1857.00	53744.16
1858.00	53940.77
1859.00	53871.33
1860.00	53617.77
1861.00	53307.26
1862.00	53205.06
1863.00	53174.63
1864.00	52928.87
1865.00	52680.00
1866.00	52481.05
1867.00	52435.02
1868.00	52242.32
1869.00	52119.83
1870.00	52075.36
1871.00	52080.82
1872.00	51888.90
1873.00	51758.61
1874.00	51628.32
1875.00	51522.99
1876.00	51265.53
1877.00	51028.36
1878.00	50761.54
1879.00	50748.28
1880.00	50735.01
1881.00	50687.42
1882.00	50465.85
1883.00	50216.97
1884.00	50179.53
1885.00	49929.87
1886.00	49868.23
1887.00	49662.27
1888.00	49751.21
1889.00	49581.91
1890.00	49481.27
1891.00	49260.48
1892.00	49198.84
1893.00	49234.73
1894.00	49198.06
1895.00	49249.55
1896.00	49104.44
1897.00	49136.43
1898.00	48808.75
1899.00	48618.39
1900.00	48172.91
1901.00	47858.49
1902.00	47530.04
1903.00	47380.24
1904.00	47327.19
1905.00	47455.14
1906.00	47314.71
1907.00	47160.23
1908.00	46874.69
1909.00	46763.90
1910.00	46763.12
1911.00	46607.87
1912.00	46293.46
1913.00	46024.29
1914.00	45705.98
1915.00	45507.82
1916.00	45074.04
1917.00	44779.91
1918.00	44471.74
1919.00	44414.01
1920.00	44366.41
1921.00	44388.26
1922.00	44135.48
1923.00	44044.20
1924.00	43778.16
1925.00	43665.81
1926.00	43345.16
1927.00	42918.40
1928.00	42624.28
1929.00	42320.79
1930.00	42194.40
1931.00	42038.36
1932.00	41948.64
1933.00	42079.71
1934.00	41875.30
1935.00	41784.80
1936.00	41483.66
1937.00	41293.29
1938.00	40970.30
1939.00	40726.10
1940.00	40598.15
1941.00	40297.00
1942.00	39931.10
1943.00	39714.99
1944.00	39617.47
1945.00	39602.64
1946.00	39335.82
1947.00	39135.32
1948.00	38934.03
1949.00	38966.02
1950.00	38877.08
1951.00	38735.09
1952.00	38504.93
1953.00	38107.04
1954.00	37813.70
1955.00	37398.64
1956.00	37250.41
1957.00	37148.20
1958.00	37000.75
1959.00	36840.81
1960.00	36448.38
1961.00	36126.95
1962.00	35687.71
1963.00	35461.46
1964.00	35298.40
1965.00	35328.83
1966.00	35134.56
1967.00	34837.31
1968.00	34576.73
1969.00	34251.40
1970.00	34131.25
1971.00	33702.15
1972.00	33450.16
1973.00	33150.57
1974.00	33180.21
1975.00	33156.81
1976.00	32948.50
1977.00	32705.87
1978.00	32552.95
1979.00	32401.60
1980.00	32145.70
1981.00	31753.27
1982.00	31637.02
1983.00	31483.33
1984.00	31366.30
1985.00	31116.64
1986.00	30866.98
1987.00	30614.21
1988.00	30451.93
1989.00	30118.79
1990.00	29814.52
1991.00	29408.83
1992.00	29259.04
1993.00	29119.38
1994.00	29142.79
1995.00	29153.71
1996.00	28986.75
1997.00	28659.08
1998.00	28324.38
1999.00	28118.42
2000.00	27902.31
2001.00	27583.99
2002.00	27534.06
2003.00	27417.82
2004.00	27163.48
2005.00	26920.06
2006.00	26586.93
2007.00	26525.29
2008.00	26267.83
2009.00	26118.04
2010.00	25915.19
2011.00	25662.41
2012.00	25530.56
2013.00	25333.96
2014.00	25164.66
2015.00	24961.81
2016.00	24856.49
2017.00	24650.52
2018.00	24467.96
2019.00	24277.60
2020.00	24201.14
2021.00	24054.47
2022.00	23811.83
2023.00	23645.65
2024.00	23593.38
2025.00	23506.78
2026.00	23346.06
2027.00	22991.08
2028.00	22781.21
2029.00	22662.63
2030.00	22546.38
2031.00	22387.22
2032.00	22130.55
2033.00	22019.76
2034.00	21935.50
2035.00	21712.37
2036.00	21512.64
2037.00	21321.50
2038.00	21225.54
2039.00	21032.83
2040.00	20827.65
2041.00	20772.25
2042.00	20572.53
2043.00	20376.70
2044.00	20178.54
2045.00	19949.95
2046.00	19822.00
2047.00	19744.76
>>>>>End Processed Spectral Data<<<<<
