SpectraSuite Data File
++++++++++++++++++++++++++++++++++++
Date: Thu Nov 16 14:03:48 EST 2017
User: cheriyan
Dark Spectrum Present: No
Reference Spectrum Present: No
Number of Sampled Component Spectra: 1
Spectrometers: USB2+H05261
Integration Time (usec): 100000 (USB2+H05261)
Spectra Averaged: 1 (USB2+H05261)
Boxcar Smoothing: 1 (USB2+H05261)
Correct for Electrical Dark: No (USB2+H05261)
Strobe/Lamp Enabled: No (USB2+H05261)
Correct for Detector Non-linearity: No (USB2+H05261)
Correct for Stray Light: No (USB2+H05261)
Number of Pixels in Processed Spectrum: 2048
>>>>>Begin Processed Spectral Data<<<<<
0.00	266.82
1.00	266.82
2.00	268.38
3.00	273.06
4.00	268.38
5.00	241.86
6.00	220.01
7.00	212.99
8.00	247.32
9.00	241.08
10.00	237.17
11.00	230.93
12.00	252.78
13.00	244.98
14.00	228.59
15.00	258.24
16.00	275.40
17.00	282.42
18.00	245.76
19.00	279.30
20.00	300.37
21.00	305.05
22.00	315.19
23.00	357.32
24.00	512.58
25.00	672.51
26.00	802.02
27.00	845.71
28.00	822.31
29.00	822.31
30.00	850.39
31.00	869.12
32.00	886.28
33.00	874.58
34.00	897.21
35.00	927.63
36.00	937.77
37.00	941.68
38.00	939.34
39.00	913.59
40.00	903.45
41.00	916.71
42.00	951.82
43.00	978.34
44.00	976.00
45.00	951.04
46.00	936.99
47.00	916.71
48.00	960.40
49.00	996.29
50.00	1004.09
51.00	1023.59
52.00	1032.18
53.00	1047.00
54.00	1052.46
55.00	1032.18
56.00	1030.62
57.00	1006.43
58.00	994.73
59.00	1007.21
60.00	993.17
61.00	1029.06
62.00	1019.69
63.00	1035.30
64.00	1020.47
65.00	1024.37
66.00	1031.40
67.00	1029.84
68.00	1054.80
69.00	1043.10
70.00	1056.36
71.00	1061.04
72.00	1088.35
73.00	1110.97
74.00	1117.22
75.00	1114.88
76.00	1103.17
77.00	1078.21
78.00	1090.69
79.00	1110.97
80.00	1155.44
81.00	1143.74
82.00	1143.74
83.00	1132.04
84.00	1171.05
85.00	1174.17
86.00	1202.26
87.00	1220.20
88.00	1242.82
89.00	1213.18
90.00	1184.31
91.00	1183.53
92.00	1214.74
93.00	1209.28
94.00	1217.86
95.00	1222.54
96.00	1258.43
97.00	1237.36
98.00	1242.04
99.00	1253.75
100.00	1280.27
101.00	1305.24
102.00	1308.36
103.00	1312.26
104.00	1289.64
105.00	1263.11
106.00	1271.69
107.00	1275.59
108.00	1323.96
109.00	1323.96
110.00	1348.93
111.00	1329.42
112.00	1343.47
113.00	1321.62
114.00	1347.37
115.00	1344.25
116.00	1366.09
117.00	1359.07
118.00	1351.27
119.00	1367.65
120.00	1387.94
121.00	1406.66
122.00	1414.46
123.00	1396.52
124.00	1443.33
125.00	1476.10
126.00	1505.74
127.00	1488.58
128.00	1470.64
129.00	1499.50
130.00	1528.37
131.00	1554.12
132.00	1520.57
133.00	1504.18
134.00	1483.12
135.00	1509.65
136.00	1532.27
137.00	1536.95
138.00	1556.46
139.00	1558.80
140.00	1572.84
141.00	1570.50
142.00	1601.71
143.00	1642.28
144.00	1688.31
145.00	1671.14
146.00	1656.32
147.00	1647.74
148.00	1627.45
149.00	1646.96
150.00	1666.46
151.00	1687.53
152.00	1695.33
153.00	1681.28
154.00	1739.02
155.00	1766.32
156.00	1784.27
157.00	1742.92
158.00	1733.56
159.00	1735.12
160.00	1764.76
161.00	1769.44
162.00	1810.79
163.00	1820.16
164.00	1845.90
165.00	1831.08
166.00	1848.24
167.00	1865.41
168.00	1881.79
169.00	1888.03
170.00	1892.71
171.00	1898.17
172.00	1909.88
173.00	1894.27
174.00	1931.72
175.00	1937.18
176.00	1989.46
177.00	1948.11
178.00	1973.07
179.00	1976.97
180.00	1993.36
181.00	2020.66
182.00	2016.76
183.00	2016.76
184.00	2010.52
185.00	2014.42
186.00	2025.34
187.00	2032.37
188.00	2040.95
189.00	2099.46
190.00	2118.96
191.00	2153.29
192.00	2157.97
193.00	2204.78
194.00	2200.88
195.00	2176.70
196.00	2182.94
197.00	2182.94
198.00	2223.51
199.00	2222.73
200.00	2252.38
201.00	2291.38
202.00	2307.77
203.00	2342.88
204.00	2357.70
205.00	2351.46
206.00	2322.59
207.00	2309.33
208.00	2303.09
209.00	2392.81
210.00	2428.70
211.00	2456.00
212.00	2442.74
213.00	2442.74
214.00	2457.56
215.00	2484.09
216.00	2462.24
217.00	2494.23
218.00	2482.53
219.00	2510.61
220.00	2551.18
221.00	2591.75
222.00	2629.98
223.00	2600.34
224.00	2568.35
225.00	2547.28
226.00	2576.15
227.00	2616.72
228.00	2663.53
229.00	2654.17
230.00	2657.29
231.00	2672.89
232.00	2688.50
233.00	2732.97
234.00	2743.11
235.00	2776.66
236.00	2768.85
237.00	2768.85
238.00	2786.80
239.00	2784.46
240.00	2859.35
241.00	2900.70
242.00	2956.10
243.00	2927.23
244.00	2966.24
245.00	2978.72
246.00	3021.63
247.00	3000.57
248.00	3016.17
249.00	3035.67
250.00	3050.50
251.00	3095.75
252.00	3072.34
253.00	3144.12
254.00	3187.81
255.00	3293.91
256.00	3272.07
257.00	3229.94
258.00	3223.70
259.00	3204.97
260.00	3245.54
261.00	3194.83
262.00	3262.71
263.00	3279.87
264.00	3352.43
265.00	3333.70
266.00	3366.47
267.00	3389.88
268.00	3421.08
269.00	3418.74
270.00	3409.38
271.00	3463.99
272.00	3542.01
273.00	3618.47
274.00	3672.30
275.00	3669.96
276.00	3638.75
277.00	3586.48
278.00	3600.52
279.00	3629.39
280.00	3669.18
281.00	3699.61
282.00	3769.04
283.00	3830.68
284.00	3831.46
285.00	3855.64
286.00	3866.56
287.00	3847.06
288.00	3836.92
289.00	3840.82
290.00	3847.06
291.00	3815.85
292.00	3847.84
293.00	3944.58
294.00	4017.92
295.00	4015.58
296.00	3985.15
297.00	3954.73
298.00	4004.66
299.00	4028.84
300.00	4024.16
301.00	3976.57
302.00	3970.33
303.00	4061.61
304.00	4134.95
305.00	4191.12
306.00	4119.34
307.00	4054.59
308.00	4038.20
309.00	4087.36
310.00	4170.83
311.00	4219.21
312.00	4239.49
313.00	4257.43
314.00	4230.13
315.00	4263.68
316.00	4265.24
317.00	4259.78
318.00	4296.44
319.00	4248.07
320.00	4327.65
321.00	4228.57
322.00	4288.64
323.00	4263.68
324.00	4351.06
325.00	4390.84
326.00	4487.59
327.00	4567.95
328.00	4610.08
329.00	4588.23
330.00	4596.03
331.00	4544.54
332.00	4550.78
333.00	4496.95
334.00	4564.04
335.00	4609.29
336.00	4702.14
337.00	4744.27
338.00	4734.12
339.00	4784.84
340.00	4819.16
341.00	4903.42
342.00	4890.16
343.00	4892.50
344.00	4868.31
345.00	4910.44
346.00	4912.00
347.00	4918.25
348.00	4943.99
349.00	4987.68
350.00	5052.44
351.00	5086.76
352.00	5093.79
353.00	5130.45
354.00	5097.69
355.00	5122.65
356.00	5105.49
357.00	5183.51
358.00	5213.93
359.00	5271.67
360.00	5266.99
361.00	5361.39
362.00	5334.86
363.00	5326.28
364.00	5302.87
365.00	5363.73
366.00	5387.91
367.00	5394.93
368.00	5384.79
369.00	5422.24
370.00	5416.00
371.00	5529.91
372.00	5522.10
373.00	5523.66
374.00	5525.22
375.00	5586.86
376.00	5664.10
377.00	5618.07
378.00	5675.02
379.00	5747.58
380.00	5855.24
381.00	5901.27
382.00	5905.95
383.00	5919.21
384.00	5940.28
385.00	6004.25
386.00	5996.45
387.00	6074.47
388.00	6123.62
389.00	6239.87
390.00	6201.64
391.00	6206.32
392.00	6195.40
393.00	6298.38
394.00	6360.02
395.00	6424.77
396.00	6461.44
397.00	6555.84
398.00	6648.68
399.00	6753.23
400.00	6715.78
401.00	6685.35
402.00	6708.76
403.00	6828.12
404.00	6915.50
405.00	6917.84
406.00	6957.63
407.00	6981.04
408.00	6873.37
409.00	6777.41
410.00	6729.04
411.00	6900.68
412.00	6911.60
413.00	6944.37
414.00	6904.58
415.00	6923.30
416.00	6925.65
417.00	6906.92
418.00	6987.28
419.00	7068.42
420.00	7157.36
421.00	7181.54
422.00	7190.91
423.00	7172.18
424.00	7151.12
425.00	7126.15
426.00	7222.89
427.00	7229.13
428.00	7310.27
429.00	7241.62
430.00	7306.37
431.00	7310.27
432.00	7322.76
433.00	7312.61
434.00	7407.02
435.00	7495.96
436.00	7506.88
437.00	7370.35
438.00	7389.07
439.00	7495.96
440.00	7624.69
441.00	7645.75
442.00	7633.27
443.00	7648.09
444.00	7679.30
445.00	7655.89
446.00	7695.68
447.00	7708.94
448.00	7832.99
449.00	7829.87
450.00	7946.12
451.00	7943.78
452.00	7981.23
453.00	7911.01
454.00	7949.24
455.00	8050.66
456.00	8175.49
457.00	8160.67
458.00	8124.78
459.00	8116.20
460.00	8189.53
461.00	8266.77
462.00	8336.99
463.00	8377.56
464.00	8368.98
465.00	8370.54
466.00	8456.36
467.00	8535.93
468.00	8503.95
469.00	8517.21
470.00	8612.39
471.00	8791.05
472.00	8796.51
473.00	8759.84
474.00	8795.73
475.00	8883.89
476.00	8966.59
477.00	9000.14
478.00	9036.03
479.00	9068.02
480.00	9025.89
481.00	9042.27
482.00	9099.22
483.00	9098.44
484.00	9202.21
485.00	9243.56
486.00	9306.75
487.00	9254.48
488.00	9210.79
489.00	9316.11
490.00	9307.53
491.00	9324.69
492.00	9339.52
493.00	9491.65
494.00	9611.02
495.00	9663.29
496.00	9603.22
497.00	9661.73
498.00	9691.38
499.00	9808.40
500.00	9752.23
501.00	9820.89
502.00	9906.71
503.00	10006.57
504.00	9995.65
505.00	9942.60
506.00	10083.81
507.00	10248.43
508.00	10326.44
509.00	10290.56
510.00	10275.73
511.00	10320.98
512.00	10389.64
513.00	10455.17
514.00	10518.37
515.00	10569.86
516.00	10490.28
517.00	10498.08
518.00	10456.73
519.00	10480.14
520.00	10585.46
521.00	10611.21
522.00	10666.60
523.00	10646.32
524.00	10761.78
525.00	10863.21
526.00	10880.37
527.00	10890.51
528.00	10960.73
529.00	10959.95
530.00	10993.50
531.00	10878.03
532.00	10839.02
533.00	10828.10
534.00	10906.12
535.00	11130.03
536.00	11108.18
537.00	11165.14
538.00	11048.11
539.00	11206.48
540.00	11254.08
541.00	11420.25
542.00	11339.12
543.00	11367.20
544.00	11411.67
545.00	11574.73
546.00	11610.62
547.00	11619.98
548.00	11674.59
549.00	11891.48
550.00	12006.95
551.00	12036.60
552.00	12011.63
553.00	11994.47
554.00	11946.87
555.00	11914.89
556.00	11942.97
557.00	12154.40
558.00	12300.30
559.00	12486.76
560.00	12492.22
561.00	12539.81
562.00	12514.84
563.00	12590.52
564.00	12633.43
565.00	12720.81
566.00	12879.97
567.00	12953.30
568.00	12976.71
569.00	12855.00
570.00	12930.68
571.00	13076.57
572.00	13307.51
573.00	13302.82
574.00	13303.60
575.00	13319.21
576.00	13529.08
577.00	13742.85
578.00	13922.29
579.00	13959.74
580.00	13938.67
581.00	14027.61
582.00	14225.78
583.00	14337.34
584.00	14480.89
585.00	14533.17
586.00	14767.22
587.00	14611.18
588.00	14630.69
589.00	14589.34
590.00	14826.51
591.00	15038.72
592.00	15259.51
593.00	15499.03
594.00	15598.11
595.00	15670.67
596.00	15701.87
597.00	15815.78
598.00	15966.35
599.00	16109.91
600.00	16269.84
601.00	16297.93
602.00	16333.82
603.00	16389.21
604.00	16632.63
605.00	16915.05
606.00	17073.43
607.00	17300.46
608.00	17341.03
609.00	17501.75
610.00	17494.72
611.00	17628.91
612.00	17716.30
613.00	17848.93
614.00	17920.70
615.00	18063.47
616.00	18226.53
617.00	18347.46
618.00	18582.29
619.00	18706.34
620.00	19023.09
621.00	19072.25
622.00	19196.29
623.00	19374.95
624.00	19540.35
625.00	19734.62
626.00	19672.98
627.00	19761.92
628.00	19815.76
629.00	20154.35
630.00	20475.79
631.00	20666.15
632.00	20643.52
633.00	20849.49
634.00	21110.85
635.00	21463.49
636.00	21523.57
637.00	21765.42
638.00	21954.23
639.00	22026.78
640.00	21963.59
641.00	21985.43
642.00	22224.17
643.00	22657.95
644.00	23004.35
645.00	23140.10
646.00	22990.30
647.00	22924.77
648.00	23123.71
649.00	23473.23
650.00	23705.73
651.00	23878.15
652.00	23882.83
653.00	24160.57
654.00	24299.44
655.00	24581.87
656.00	24636.48
657.00	24959.47
658.00	25136.57
659.00	25402.61
660.00	25535.24
661.00	25768.52
662.00	25816.11
663.00	25872.28
664.00	25958.88
665.00	26068.89
666.00	26264.71
667.00	26394.22
668.00	26623.59
669.00	26796.01
670.00	27016.80
671.00	27300.79
672.00	27361.64
673.00	27522.36
674.00	27526.26
675.00	27671.37
676.00	27630.80
677.00	27772.02
678.00	28092.67
679.00	28406.30
680.00	28711.35
681.00	28781.57
682.00	29205.98
683.00	29415.07
684.00	29646.79
685.00	29675.65
686.00	29836.37
687.00	30044.68
688.00	30207.73
689.00	30321.64
690.00	30434.77
691.00	30481.58
692.00	30642.29
693.00	30827.98
694.00	31074.51
695.00	31318.71
696.00	31506.73
697.00	31660.43
698.00	31775.11
699.00	31816.46
700.00	32070.80
701.00	32345.42
702.00	32542.81
703.00	32769.84
704.00	32951.62
705.00	33309.72
706.00	33466.54
707.00	33597.61
708.00	33717.76
709.00	33970.54
710.00	34134.37
711.00	34272.46
712.00	34256.86
713.00	34350.48
714.00	34363.75
715.00	34420.70
716.00	34603.26
717.00	35008.95
718.00	35145.48
719.00	35266.41
720.00	35385.78
721.00	35548.06
722.00	35633.88
723.00	35530.11
724.00	35668.20
725.00	35819.56
726.00	36027.87
727.00	36400.01
728.00	36297.03
729.00	36332.92
730.00	36231.49
731.00	36474.13
732.00	36601.30
733.00	36652.79
734.00	36740.17
735.00	36789.32
736.00	36776.84
737.00	37139.62
738.00	37372.11
739.00	37725.53
740.00	37668.58
741.00	37912.00
742.00	38006.40
743.00	37986.11
744.00	37978.31
745.00	38157.75
746.00	38486.99
747.00	38845.09
748.00	39039.36
749.00	39200.07
750.00	39285.89
751.00	39356.11
752.00	39549.59
753.00	39627.61
754.00	39821.09
755.00	39789.89
756.00	40099.62
757.00	40121.46
758.00	40271.26
759.00	40109.76
760.00	40311.05
761.00	40530.28
762.00	40807.24
763.00	40909.44
764.00	40916.47
765.00	40907.88
766.00	41036.61
767.00	41340.10
768.00	41558.55
769.00	41721.61
770.00	42004.03
771.00	42096.88
772.00	42334.05
773.00	42190.50
774.00	42421.43
775.00	42414.41
776.00	42654.70
777.00	42827.12
778.00	42947.27
779.00	43095.50
780.00	43079.12
781.00	43345.16
782.00	43434.88
783.00	43601.84
784.00	43646.31
785.00	43623.68
786.00	43678.30
787.00	43746.17
788.00	44179.17
789.00	44431.95
790.00	44559.90
791.00	44570.82
792.00	44766.65
793.00	44974.17
794.00	45016.30
795.00	44900.06
796.00	45108.36
797.00	45375.97
798.00	45471.93
799.00	45410.29
800.00	45485.19
801.00	45742.65
802.00	46059.40
803.00	46167.85
804.00	46408.14
805.00	46578.22
806.00	46711.63
807.00	46651.56
808.00	46586.80
809.00	46731.92
810.00	46969.09
811.00	47136.05
812.00	47116.54
813.00	47196.12
814.00	47492.59
815.00	47636.14
816.00	47659.55
817.00	47413.01
818.00	47423.15
819.00	47546.42
820.00	47668.91
821.00	47998.15
822.00	48062.90
823.00	48176.81
824.00	48142.48
825.00	48215.04
826.00	48531.01
827.00	48758.82
828.00	49013.16
829.00	48935.14
830.00	48989.75
831.00	49126.28
832.00	49370.48
833.00	49344.73
834.00	49363.46
835.00	49359.56
836.00	49500.77
837.00	49704.40
838.00	49813.62
839.00	49909.58
840.00	49908.80
841.00	50163.92
842.00	50486.14
843.00	50733.45
844.00	50791.19
845.00	50888.71
846.00	50855.16
847.00	50859.84
848.00	50809.91
849.00	51024.46
850.00	51050.20
851.00	51084.53
852.00	51125.10
853.00	51337.31
854.00	51510.51
855.00	51544.84
856.00	51695.41
857.00	51841.31
858.00	51913.08
859.00	51870.17
860.00	51909.96
861.00	51970.82
862.00	52046.49
863.00	51973.94
864.00	51966.13
865.00	51909.18
866.00	52067.56
867.00	52183.80
868.00	52370.27
869.00	52390.55
870.00	52572.33
871.00	52727.59
872.00	52790.78
873.00	52740.07
874.00	52814.19
875.00	52946.82
876.00	53092.71
877.00	53276.83
878.00	53350.95
879.00	53405.56
880.00	53341.59
881.00	53475.00
882.00	53443.01
883.00	53446.13
884.00	53276.05
885.00	53270.59
886.00	53328.33
887.00	53494.50
888.00	53652.10
889.00	53641.18
890.00	53656.00
891.00	53794.87
892.00	53893.96
893.00	53863.53
894.00	53829.98
895.00	53883.03
896.00	54034.39
897.00	54032.05
898.00	54016.44
899.00	54102.26
900.00	54301.99
901.00	54479.87
902.00	54575.83
903.00	54575.05
904.00	54674.91
905.00	54791.94
906.00	54942.52
907.00	54824.71
908.00	54742.79
909.00	54825.49
910.00	54901.95
911.00	54845.77
912.00	54699.10
913.00	54844.99
914.00	54873.86
915.00	54913.65
916.00	54758.39
917.00	54761.51
918.00	54805.20
919.00	54800.52
920.00	54853.58
921.00	54876.98
922.00	55128.98
923.00	55293.60
924.00	55445.73
925.00	55419.20
926.00	55671.20
927.00	55694.61
928.00	55760.92
929.00	55706.31
930.00	55719.57
931.00	55721.13
932.00	55753.90
933.00	55859.23
934.00	55938.02
935.00	55917.74
936.00	55924.76
937.00	55972.35
938.00	55938.80
939.00	55966.11
940.00	55954.41
941.00	56057.39
942.00	56137.75
943.00	56307.05
944.00	56399.11
945.00	56531.74
946.00	56523.94
947.00	56461.52
948.00	56484.15
949.00	56555.14
950.00	56747.07
951.00	56790.76
952.00	56807.92
953.00	56764.23
954.00	56679.97
955.00	56658.13
956.00	56704.94
957.00	56787.64
958.00	56962.40
959.00	57101.27
960.00	57137.94
961.00	57166.80
962.00	57153.54
963.00	57216.74
964.00	57286.95
965.00	57368.87
966.00	57568.60
967.00	57709.03
968.00	57762.86
969.00	57670.80
970.00	57645.83
971.00	57785.49
972.00	57897.83
973.00	57922.02
974.00	57912.66
975.00	57964.93
976.00	57908.75
977.00	57780.02
978.00	57702.01
979.00	57751.16
980.00	57847.12
981.00	58051.53
982.00	58099.90
983.00	58134.23
984.00	58120.18
985.00	58174.80
986.00	58204.44
987.00	58052.31
988.00	58129.55
989.00	58123.30
990.00	58347.21
991.00	58282.46
992.00	58375.30
993.00	58445.52
994.00	58659.29
995.00	58845.75
996.00	58834.83
997.00	58936.25
998.00	59011.93
999.00	59189.81
1000.00	59207.75
1001.00	59163.28
1002.00	59005.69
1003.00	58853.55
1004.00	58851.21
1005.00	58814.54
1006.00	58918.31
1007.00	58940.93
1008.00	59043.13
1009.00	59015.05
1010.00	59057.18
1011.00	59011.15
1012.00	59114.13
1013.00	59113.35
1014.00	59265.49
1015.00	59336.48
1016.00	59426.98
1017.00	59501.10
1018.00	59522.94
1019.00	59554.93
1020.00	59598.62
1021.00	59716.43
1022.00	59833.45
1023.00	59788.20
1024.00	59710.97
1025.00	59684.44
1026.00	59856.08
1027.00	59975.45
1028.00	60026.16
1029.00	59917.71
1030.00	59883.39
1031.00	59968.43
1032.00	60104.18
1033.00	60193.90
1034.00	60141.63
1035.00	60126.80
1036.00	60157.23
1037.00	60178.29
1038.00	60222.76
1039.00	60173.61
1040.00	60252.41
1041.00	60259.43
1042.00	60236.81
1043.00	60346.81
1044.00	60472.42
1045.00	60699.45
1046.00	60647.96
1047.00	60594.91
1048.00	60549.66
1049.00	60582.43
1050.00	60704.13
1051.00	60740.02
1052.00	60839.11
1053.00	60895.28
1054.00	60903.86
1055.00	60783.71
1056.00	60656.54
1057.00	60721.30
1058.00	60917.90
1059.00	61085.64
1060.00	61163.66
1061.00	61118.41
1062.00	61148.84
1063.00	61088.76
1064.00	61081.74
1065.00	61024.79
1066.00	61078.62
1067.00	61176.14
1068.00	61155.08
1069.00	61147.28
1070.00	61086.42
1071.00	61229.97
1072.00	61343.10
1073.00	61445.30
1074.00	61474.17
1075.00	61512.40
1076.00	61517.86
1077.00	61520.98
1078.00	61574.81
1079.00	61639.57
1080.00	61666.09
1081.00	61704.32
1082.00	61754.25
1083.00	61846.32
1084.00	61843.98
1085.00	61861.14
1086.00	61794.04
1087.00	61734.75
1088.00	61693.40
1089.00	61722.27
1090.00	61776.10
1091.00	61792.48
1092.00	61874.40
1093.00	61881.42
1094.00	61936.04
1095.00	61899.37
1096.00	61957.10
1097.00	62015.61
1098.00	62113.14
1099.00	62055.40
1100.00	62082.71
1101.00	62052.28
1102.00	62109.24
1103.00	62063.99
1104.00	62117.04
1105.00	62205.20
1106.00	62224.70
1107.00	62227.82
1108.00	62242.65
1109.00	62414.29
1110.00	62462.66
1111.00	62429.11
1112.00	62297.26
1113.00	62244.21
1114.00	62230.16
1115.00	62228.60
1116.00	62230.16
1117.00	62305.06
1118.00	62389.32
1119.00	62366.69
1120.00	62368.26
1121.00	62313.64
1122.00	62443.93
1123.00	62425.21
1124.00	62511.03
1125.00	62468.90
1126.00	62557.84
1127.00	62604.65
1128.00	62617.13
1129.00	62528.19
1130.00	62474.36
1131.00	62486.84
1132.00	62568.76
1133.00	62550.82
1134.00	62525.85
1135.00	62503.23
1136.00	62518.05
1137.00	62560.18
1138.00	62609.33
1139.00	62692.81
1140.00	62740.40
1141.00	62841.04
1142.00	62954.95
1143.00	62941.69
1144.00	62849.63
1145.00	62738.06
1146.00	62783.31
1147.00	62796.57
1148.00	62783.31
1149.00	62758.34
1150.00	62772.39
1151.00	62838.70
1152.00	62830.12
1153.00	62805.94
1154.00	62654.58
1155.00	62602.31
1156.00	62533.65
1157.00	62615.57
1158.00	62578.12
1159.00	62647.56
1160.00	62733.38
1161.00	62884.73
1162.00	62985.38
1163.00	62909.70
1164.00	62883.17
1165.00	62849.63
1166.00	62862.89
1167.00	62962.75
1168.00	63053.25
1169.00	63164.04
1170.00	63110.20
1171.00	63062.61
1172.00	63053.25
1173.00	63052.47
1174.00	63011.12
1175.00	62983.82
1176.00	63014.24
1177.00	63049.35
1178.00	63028.29
1179.00	63017.36
1180.00	63036.09
1181.00	62993.96
1182.00	63047.79
1183.00	63040.77
1184.00	63086.80
1185.00	63011.12
1186.00	63027.51
1187.00	63091.48
1188.00	63153.90
1189.00	63138.29
1190.00	63095.38
1191.00	63045.45
1192.00	62975.23
1193.00	62922.18
1194.00	62919.06
1195.00	62993.18
1196.00	63029.07
1197.00	63015.80
1198.00	63086.02
1199.00	63178.08
1200.00	63193.68
1201.00	63212.41
1202.00	63094.60
1203.00	63121.91
1204.00	63052.47
1205.00	63121.13
1206.00	63098.50
1207.00	63103.18
1208.00	63079.00
1209.00	63190.56
1210.00	63287.31
1211.00	63376.25
1212.00	63464.41
1213.00	63439.44
1214.00	63368.44
1215.00	63233.47
1216.00	63086.80
1217.00	63124.25
1218.00	63153.11
1219.00	63317.73
1220.00	63366.10
1221.00	63368.44
1222.00	63342.70
1223.00	63363.76
1224.00	63321.63
1225.00	63274.82
1226.00	63236.59
1227.00	63206.17
1228.00	63113.33
1229.00	62989.28
1230.00	63015.80
1231.00	63160.14
1232.00	63281.84
1233.00	63318.51
1234.00	63309.93
1235.00	63316.17
1236.00	63419.16
1237.00	63444.12
1238.00	63487.03
1239.00	63533.06
1240.00	63629.80
1241.00	63708.60
1242.00	63747.61
1243.00	63675.83
1244.00	63642.29
1245.00	63593.92
1246.00	63658.67
1247.00	63738.25
1248.00	63829.53
1249.00	63889.60
1250.00	63897.41
1251.00	63863.08
1252.00	63859.18
1253.00	63905.21
1254.00	63951.24
1255.00	63989.47
1256.00	63954.36
1257.00	63916.13
1258.00	63921.59
1259.00	63857.62
1260.00	63863.86
1261.00	63890.38
1262.00	63934.85
1263.00	63949.68
1264.00	63860.74
1265.00	63911.45
1266.00	63890.38
1267.00	63929.39
1268.00	63955.92
1269.00	64070.60
1270.00	64087.77
1271.00	64200.11
1272.00	64257.85
1273.00	64399.84
1274.00	64386.58
1275.00	64303.10
1276.00	64263.31
1277.00	64147.84
1278.00	64143.16
1279.00	64099.47
1280.00	64136.14
1281.00	64225.86
1282.00	64322.60
1283.00	64396.72
1284.00	64296.86
1285.00	64349.91
1286.00	64386.58
1287.00	64502.04
1288.00	64402.18
1289.00	64380.34
1290.00	64321.04
1291.00	64380.34
1292.00	64410.76
1293.00	64426.37
1294.00	64405.30
1295.00	64389.70
1296.00	64443.53
1297.00	64384.24
1298.00	64391.26
1299.00	64332.74
1300.00	64431.83
1301.00	64487.22
1302.00	64534.81
1303.00	64479.42
1304.00	64477.86
1305.00	64469.28
1306.00	64479.42
1307.00	64489.56
1308.00	64537.15
1309.00	64550.41
1310.00	64529.35
1311.00	64498.92
1312.00	64672.12
1313.00	64708.79
1314.00	64835.18
1315.00	64809.43
1316.00	64828.16
1317.00	64747.02
1318.00	64711.13
1319.00	64751.70
1320.00	64860.15
1321.00	64922.56
1322.00	64910.86
1323.00	64989.66
1324.00	65043.49
1325.00	65084.84
1326.00	64932.70
1327.00	64853.12
1328.00	64780.57
1329.00	64796.17
1330.00	64750.92
1331.00	64859.37
1332.00	64848.44
1333.00	64920.22
1334.00	64857.02
1335.00	64930.36
1336.00	64946.75
1337.00	65046.61
1338.00	65078.60
1339.00	65131.65
1340.00	65112.14
1341.00	65142.57
1342.00	65125.41
1343.00	65189.38
1344.00	65197.18
1345.00	65144.13
1346.00	65066.11
1347.00	65031.78
1348.00	65051.29
1349.00	65024.76
1350.00	64902.28
1351.00	64899.93
1352.00	64803.19
1353.00	64878.09
1354.00	64777.45
1355.00	64809.43
1356.00	64777.45
1357.00	64929.58
1358.00	65016.18
1359.00	65125.41
1360.00	65137.11
1361.00	65216.69
1362.00	65238.53
1363.00	65187.82
1364.00	65051.29
1365.00	65080.16
1366.00	65140.23
1367.00	65144.13
1368.00	65124.63
1369.00	65073.13
1370.00	65130.09
1371.00	65055.97
1372.00	64999.02
1373.00	64944.40
1374.00	64956.89
1375.00	64981.85
1376.00	65067.67
1377.00	65112.92
1378.00	65176.90
1379.00	65160.51
1380.00	65151.15
1381.00	65151.15
1382.00	65187.82
1383.00	65212.79
1384.00	65258.82
1385.00	65277.54
1386.00	65281.44
1387.00	65301.73
1388.00	65353.22
1389.00	65298.61
1390.00	65263.50
1391.00	65201.86
1392.00	65272.08
1393.00	65225.27
1394.00	65167.54
1395.00	65062.99
1396.00	65003.70
1397.00	64939.72
1398.00	64931.92
1399.00	64993.56
1400.00	65143.35
1401.00	65122.29
1402.00	65136.33
1403.00	65032.56
1404.00	65023.20
1405.00	64928.80
1406.00	64906.18
1407.00	64935.04
1408.00	65003.70
1409.00	64987.31
1410.00	64992.00
1411.00	64901.50
1412.00	64940.50
1413.00	64964.69
1414.00	65020.86
1415.00	65051.29
1416.00	65134.77
1417.00	65210.45
1418.00	65158.95
1419.00	65104.34
1420.00	65142.57
1421.00	65153.49
1422.00	65104.34
1423.00	64987.31
1424.00	64947.53
1425.00	64908.52
1426.00	64808.65
1427.00	64813.33
1428.00	64812.55
1429.00	64849.22
1430.00	64931.92
1431.00	64960.01
1432.00	65027.88
1433.00	64999.02
1434.00	64977.95
1435.00	64918.66
1436.00	64814.90
1437.00	64821.14
1438.00	64838.30
1439.00	64939.72
1440.00	65025.54
1441.00	65102.00
1442.00	65155.83
1443.00	65082.50
1444.00	65033.35
1445.00	64914.76
1446.00	64927.24
1447.00	64897.59
1448.00	64867.17
1449.00	64755.60
1450.00	64759.50
1451.00	64768.86
1452.00	64842.98
1453.00	64935.04
1454.00	64997.46
1455.00	65001.36
1456.00	64924.12
1457.00	64864.83
1458.00	64952.99
1459.00	64956.11
1460.00	64998.24
1461.00	64853.90
1462.00	64739.22
1463.00	64619.07
1464.00	64628.43
1465.00	64675.24
1466.00	64713.47
1467.00	64693.97
1468.00	64725.17
1469.00	64800.85
1470.00	64846.88
1471.00	64796.95
1472.00	64750.92
1473.00	64729.08
1474.00	64803.19
1475.00	64822.70
1476.00	64870.29
1477.00	64853.12
1478.00	64795.39
1479.00	64751.70
1480.00	64643.26
1481.00	64645.60
1482.00	64631.55
1483.00	64686.95
1484.00	64706.45
1485.00	64620.63
1486.00	64541.05
1487.00	64420.12
1488.00	64337.43
1489.00	64297.64
1490.00	64304.66
1491.00	64389.70
1492.00	64388.92
1493.00	64472.40
1494.00	64522.33
1495.00	64619.07
1496.00	64600.35
1497.00	64546.51
1498.00	64456.01
1499.00	64399.06
1500.00	64420.90
1501.00	64390.48
1502.00	64388.92
1503.00	64303.88
1504.00	64382.68
1505.00	64519.99
1506.00	64537.93
1507.00	64544.17
1508.00	64447.43
1509.00	64523.89
1510.00	64494.24
1511.00	64443.53
1512.00	64387.36
1513.00	64332.74
1514.00	64353.81
1515.00	64296.86
1516.00	64214.16
1517.00	64192.31
1518.00	64215.72
1519.00	64340.55
1520.00	64296.08
1521.00	64278.91
1522.00	64156.42
1523.00	64157.98
1524.00	64122.10
1525.00	64236.00
1526.00	64193.87
1527.00	64197.77
1528.00	64113.51
1529.00	64059.68
1530.00	64104.93
1531.00	64126.00
1532.00	64193.87
1533.00	64128.34
1534.00	64090.11
1535.00	64129.90
1536.00	64164.23
1537.00	64209.48
1538.00	64134.58
1539.00	64113.51
1540.00	64147.84
1541.00	64140.04
1542.00	64151.74
1543.00	64065.92
1544.00	64096.35
1545.00	64122.10
1546.00	64172.03
1547.00	64118.20
1548.00	64149.40
1549.00	64065.92
1550.00	64076.85
1551.00	63979.32
1552.00	64017.55
1553.00	64104.15
1554.00	64106.49
1555.00	64101.81
1556.00	63979.32
1557.00	63877.12
1558.00	63870.10
1559.00	63926.27
1560.00	63992.59
1561.00	63986.35
1562.00	63991.81
1563.00	63992.59
1564.00	63984.01
1565.00	63970.74
1566.00	63946.56
1567.00	63937.19
1568.00	63839.67
1569.00	63858.40
1570.00	63877.90
1571.00	63863.86
1572.00	63701.58
1573.00	63626.68
1574.00	63607.18
1575.00	63661.79
1576.00	63623.56
1577.00	63596.26
1578.00	63614.98
1579.00	63599.38
1580.00	63616.54
1581.00	63571.29
1582.00	63628.24
1583.00	63665.69
1584.00	63744.49
1585.00	63707.82
1586.00	63538.52
1587.00	63403.55
1588.00	63353.62
1589.00	63443.34
1590.00	63428.52
1591.00	63344.26
1592.00	63354.40
1593.00	63353.62
1594.00	63373.91
1595.00	63318.51
1596.00	63412.13
1597.00	63504.20
1598.00	63554.91
1599.00	63541.64
1600.00	63519.02
1601.00	63470.65
1602.00	63401.99
1603.00	63323.97
1604.00	63378.59
1605.00	63427.74
1606.00	63483.91
1607.00	63435.54
1608.00	63326.31
1609.00	63261.56
1610.00	63284.96
1611.00	63361.42
1612.00	63412.91
1613.00	63456.60
1614.00	63463.63
1615.00	63465.19
1616.00	63427.74
1617.00	63439.44
1618.00	63372.34
1619.00	63261.56
1620.00	63186.66
1621.00	63216.31
1622.00	63319.29
1623.00	63269.36
1624.00	63306.81
1625.00	63210.85
1626.00	63285.75
1627.00	63171.84
1628.00	63214.75
1629.00	63240.49
1630.00	63322.41
1631.00	63430.08
1632.00	63438.66
1633.00	63438.66
1634.00	63328.66
1635.00	63291.21
1636.00	63182.76
1637.00	63080.56
1638.00	62913.60
1639.00	62915.94
1640.00	62898.78
1641.00	62966.65
1642.00	62947.93
1643.00	63058.71
1644.00	62994.74
1645.00	63012.68
1646.00	62983.04
1647.00	63039.99
1648.00	63093.82
1649.00	63025.17
1650.00	62947.93
1651.00	62778.63
1652.00	62751.32
1653.00	62783.31
1654.00	62848.06
1655.00	62812.96
1656.00	62792.67
1657.00	62855.87
1658.00	62960.41
1659.00	63029.85
1660.00	63021.26
1661.00	63025.17
1662.00	63091.48
1663.00	63092.26
1664.00	63109.42
1665.00	63018.14
1666.00	62995.52
1667.00	62975.23
1668.00	63008.78
1669.00	62954.17
1670.00	62937.01
1671.00	62908.14
1672.00	62940.91
1673.00	62964.31
1674.00	63011.12
1675.00	63076.66
1676.00	63016.58
1677.00	62853.53
1678.00	62739.62
1679.00	62649.90
1680.00	62630.40
1681.00	62552.38
1682.00	62504.01
1683.00	62550.04
1684.00	62621.81
1685.00	62736.50
1686.00	62689.69
1687.00	62632.74
1688.00	62550.82
1689.00	62444.71
1690.00	62311.30
1691.00	62227.82
1692.00	62337.83
1693.00	62418.97
1694.00	62493.86
1695.00	62526.63
1696.00	62614.79
1697.00	62606.99
1698.00	62546.92
1699.00	62433.01
1700.00	62372.16
1701.00	62260.59
1702.00	62215.34
1703.00	62189.59
1704.00	62208.32
1705.00	62158.39
1706.00	62113.92
1707.00	62055.40
1708.00	62010.93
1709.00	61926.67
1710.00	61923.55
1711.00	62077.25
1712.00	62197.40
1713.00	62188.81
1714.00	62092.85
1715.00	62021.86
1716.00	61957.10
1717.00	61888.45
1718.00	61823.69
1719.00	61855.68
1720.00	61855.68
1721.00	61853.34
1722.00	61891.57
1723.00	61900.93
1724.00	61794.04
1725.00	61659.85
1726.00	61504.60
1727.00	61443.74
1728.00	61441.40
1729.00	61520.20
1730.00	61670.00
1731.00	61686.38
1732.00	61722.27
1733.00	61698.86
1734.00	61757.38
1735.00	61756.60
1736.00	61741.77
1737.00	61696.52
1738.00	61545.17
1739.00	61485.87
1740.00	61405.51
1741.00	61436.72
1742.00	61389.13
1743.00	61225.29
1744.00	61086.42
1745.00	60955.35
1746.00	61043.51
1747.00	61049.75
1748.00	61152.74
1749.00	61130.89
1750.00	61155.08
1751.00	61038.83
1752.00	60903.86
1753.00	60811.02
1754.00	60743.92
1755.00	60731.44
1756.00	60704.13
1757.00	60697.11
1758.00	60616.75
1759.00	60605.83
1760.00	60487.24
1761.00	60468.52
1762.00	60344.47
1763.00	60257.87
1764.00	60189.22
1765.00	60154.89
1766.00	60246.17
1767.00	60231.35
1768.00	60179.07
1769.00	60198.58
1770.00	60227.45
1771.00	60218.08
1772.00	60164.25
1773.00	60201.70
1774.00	60174.39
1775.00	60091.69
1776.00	59973.11
1777.00	59934.10
1778.00	59875.58
1779.00	59856.08
1780.00	59851.40
1781.00	59817.07
1782.00	59850.62
1783.00	59804.59
1784.00	59791.33
1785.00	59697.70
1786.00	59630.61
1787.00	59503.44
1788.00	59377.83
1789.00	59359.89
1790.00	59363.79
1791.00	59335.70
1792.00	59299.81
1793.00	59260.80
1794.00	59226.48
1795.00	59181.23
1796.00	59125.83
1797.00	59073.56
1798.00	59054.06
1799.00	59039.23
1800.00	58940.15
1801.00	58820.78
1802.00	58788.80
1803.00	58770.85
1804.00	58704.54
1805.00	58578.15
1806.00	58466.58
1807.00	58376.86
1808.00	58298.06
1809.00	58305.09
1810.00	58178.70
1811.00	58042.95
1812.00	57822.15
1813.00	57736.34
1814.00	57713.71
1815.00	57714.49
1816.00	57607.61
1817.00	57509.30
1818.00	57299.44
1819.00	57264.33
1820.00	57123.11
1821.00	57180.07
1822.00	57156.66
1823.00	57105.95
1824.00	57049.78
1825.00	56974.10
1826.00	57046.66
1827.00	57073.96
1828.00	57109.07
1829.00	57024.81
1830.00	56685.43
1831.00	56636.28
1832.00	56470.11
1833.00	56525.50
1834.00	56163.49
1835.00	56112.78
1836.00	55906.82
1837.00	55978.59
1838.00	55799.93
1839.00	55757.02
1840.00	55719.57
1841.00	55808.51
1842.00	55894.33
1843.00	55782.77
1844.00	55564.32
1845.00	55423.89
1846.00	55203.88
1847.00	55057.20
1848.00	54855.92
1849.00	54658.53
1850.00	54544.62
1851.00	54378.45
1852.00	54467.39
1853.00	54423.70
1854.00	54404.97
1855.00	54177.94
1856.00	54067.94
1857.00	54007.86
1858.00	54021.90
1859.00	53848.71
1860.00	53637.28
1861.00	53368.12
1862.00	53144.20
1863.00	53026.40
1864.00	52850.08
1865.00	52842.27
1866.00	52695.60
1867.00	52598.08
1868.00	52452.97
1869.00	52304.73
1870.00	52268.84
1871.00	52105.79
1872.00	51933.37
1873.00	51831.94
1874.00	51760.95
1875.00	51735.20
1876.00	51544.06
1877.00	51379.44
1878.00	51243.69
1879.00	51143.05
1880.00	51083.75
1881.00	50885.59
1882.00	50707.71
1883.00	50412.80
1884.00	50321.52
1885.00	50189.67
1886.00	50287.19
1887.00	50232.58
1888.00	50197.47
1889.00	49936.89
1890.00	49836.25
1891.00	49670.85
1892.00	49590.49
1893.00	49482.83
1894.00	49486.73
1895.00	49441.48
1896.00	49318.21
1897.00	49152.81
1898.00	48988.19
1899.00	48760.38
1900.00	48445.19
1901.00	48039.50
1902.00	47876.44
1903.00	47822.61
1904.00	47874.88
1905.00	47851.47
1906.00	47575.29
1907.00	47276.48
1908.00	46946.47
1909.00	46754.54
1910.00	46671.06
1911.00	46607.87
1912.00	46394.88
1913.00	46252.11
1914.00	45971.24
1915.00	45978.26
1916.00	45652.93
1917.00	45503.92
1918.00	45163.76
1919.00	45122.41
1920.00	44730.76
1921.00	44617.63
1922.00	44311.80
1923.00	44345.35
1924.00	44244.71
1925.00	44112.08
1926.00	43788.30
1927.00	43217.99
1928.00	42891.88
1929.00	42624.28
1930.00	42742.08
1931.00	42614.13
1932.00	42369.16
1933.00	42150.71
1934.00	41924.46
1935.00	41859.70
1936.00	41720.83
1937.00	41630.33
1938.00	41516.42
1939.00	41280.03
1940.00	41063.14
1941.00	40808.02
1942.00	40540.42
1943.00	40320.41
1944.00	39966.99
1945.00	39668.18
1946.00	39549.59
1947.00	39436.47
1948.00	39462.99
1949.00	39320.22
1950.00	39167.30
1951.00	38907.51
1952.00	38601.68
1953.00	38260.74
1954.00	38049.31
1955.00	37898.73
1956.00	37782.49
1957.00	37594.46
1958.00	37368.99
1959.00	37162.25
1960.00	36731.59
1961.00	36350.86
1962.00	36110.57
1963.00	35988.86
1964.00	35849.99
1965.00	35653.38
1966.00	35473.16
1967.00	35253.15
1968.00	34935.62
1969.00	34531.48
1970.00	34210.83
1971.00	33954.93
1972.00	33792.65
1973.00	33553.92
1974.00	33535.98
1975.00	33276.18
1976.00	33048.36
1977.00	32552.17
1978.00	32355.57
1979.00	32229.18
1980.00	32343.86
1981.00	32056.76
1982.00	31694.75
1983.00	31278.14
1984.00	31186.86
1985.00	31089.34
1986.00	30980.89
1987.00	30707.05
1988.00	30641.51
1989.00	30381.71
1990.00	30303.70
1991.00	29958.86
1992.00	29816.08
1993.00	29664.73
1994.00	29597.63
1995.00	29452.52
1996.00	29084.28
1997.00	28755.82
1998.00	28596.67
1999.00	28450.77
2000.00	28266.65
2001.00	27907.77
2002.00	27895.28
2003.00	27708.04
2004.00	27509.10
2005.00	27180.64
2006.00	26893.54
2007.00	26661.04
2008.00	26325.57
2009.00	26070.45
2010.00	25852.00
2011.00	25888.67
2012.00	25779.44
2013.00	25768.52
2014.00	25381.55
2015.00	25227.85
2016.00	24924.36
2017.00	24915.00
2018.00	24805.00
2019.00	24688.75
2020.00	24524.91
2021.00	24361.08
2022.00	24226.89
2023.00	23975.67
2024.00	23866.44
2025.00	23584.80
2026.00	23420.18
2027.00	22983.28
2028.00	22906.04
2029.00	22809.30
2030.00	22910.72
2031.00	22820.22
2032.00	22675.89
2033.00	22559.64
2034.00	22332.61
2035.00	21966.71
2036.00	21546.19
2037.00	21287.17
2038.00	21041.42
2039.00	20897.08
2040.00	20708.28
2041.00	20613.88
2042.00	20505.43
2043.00	20386.07
2044.00	20375.14
2045.00	20257.34
2046.00	20229.25
2047.00	20226.91
>>>>>End Processed Spectral Data<<<<<
