SpectraSuite Data File
++++++++++++++++++++++++++++++++++++
Date: Thu Nov 16 14:03:08 EST 2017
User: cheriyan
Dark Spectrum Present: No
Reference Spectrum Present: No
Number of Sampled Component Spectra: 1
Spectrometers: USB2+H05261
Integration Time (usec): 100000 (USB2+H05261)
Spectra Averaged: 1 (USB2+H05261)
Boxcar Smoothing: 1 (USB2+H05261)
Correct for Electrical Dark: No (USB2+H05261)
Strobe/Lamp Enabled: No (USB2+H05261)
Correct for Detector Non-linearity: No (USB2+H05261)
Correct for Stray Light: No (USB2+H05261)
Number of Pixels in Processed Spectrum: 2048
>>>>>Begin Processed Spectral Data<<<<<
0.00	400.23
1.00	400.23
2.00	362.78
3.00	312.85
4.00	258.24
5.00	245.76
6.00	238.73
7.00	223.91
8.00	206.75
9.00	210.65
10.00	257.46
11.00	271.50
12.00	266.04
13.00	237.17
14.00	259.02
15.00	268.38
16.00	269.94
17.00	268.38
18.00	276.96
19.00	284.77
20.00	277.74
21.00	278.52
22.00	284.77
23.00	332.36
24.00	479.03
25.00	628.82
26.00	754.43
27.00	812.95
28.00	834.01
29.00	860.54
30.00	846.49
31.00	865.22
32.00	854.30
33.00	844.15
34.00	868.34
35.00	909.69
36.00	929.97
37.00	927.63
38.00	880.04
39.00	868.34
40.00	846.49
41.00	887.84
42.00	922.95
43.00	942.46
44.00	969.76
45.00	976.78
46.00	998.63
47.00	964.30
48.00	985.37
49.00	984.59
50.00	968.20
51.00	966.64
52.00	977.56
53.00	1019.69
54.00	998.63
55.00	1008.77
56.00	1022.03
57.00	1057.92
58.00	1034.52
59.00	1026.72
60.00	1025.15
61.00	1048.56
62.00	1050.90
63.00	1057.92
64.00	1077.43
65.00	1071.19
66.00	1069.62
67.00	1034.52
68.00	1018.13
69.00	1003.31
70.00	1028.28
71.00	1088.35
72.00	1097.71
73.00	1120.34
74.00	1089.13
75.00	1094.59
76.00	1077.43
77.00	1127.36
78.00	1124.24
79.00	1110.19
80.00	1122.68
81.00	1154.66
82.00	1176.51
83.00	1135.16
84.00	1116.44
85.00	1132.82
86.00	1142.18
87.00	1157.00
88.00	1160.13
89.00	1156.22
90.00	1150.76
91.00	1156.22
92.00	1153.88
93.00	1185.87
94.00	1179.63
95.00	1197.57
96.00	1184.31
97.00	1217.86
98.00	1241.26
99.00	1266.23
100.00	1275.59
101.00	1289.64
102.00	1276.37
103.00	1272.47
104.00	1259.21
105.00	1266.23
106.00	1241.26
107.00	1249.85
108.00	1260.77
109.00	1262.33
110.00	1252.19
111.00	1266.23
112.00	1300.56
113.00	1309.14
114.00	1311.48
115.00	1295.88
116.00	1313.82
117.00	1369.21
118.00	1371.55
119.00	1404.32
120.00	1384.04
121.00	1422.27
122.00	1447.23
123.00	1426.17
124.00	1440.21
125.00	1419.92
126.00	1454.25
127.00	1462.83
128.00	1439.43
129.00	1459.71
130.00	1460.49
131.00	1508.87
132.00	1490.92
133.00	1515.11
134.00	1513.55
135.00	1548.65
136.00	1540.85
137.00	1555.68
138.00	1541.63
139.00	1560.36
140.00	1560.36
141.00	1565.82
142.00	1545.53
143.00	1553.34
144.00	1540.07
145.00	1571.28
146.00	1593.12
147.00	1614.97
148.00	1632.13
149.00	1646.96
150.00	1643.84
151.00	1668.02
152.00	1678.94
153.00	1715.61
154.00	1762.42
155.00	1770.23
156.00	1772.57
157.00	1758.52
158.00	1771.79
159.00	1771.01
160.00	1749.94
161.00	1735.90
162.00	1749.94
163.00	1756.18
164.00	1784.27
165.00	1815.48
166.00	1810.79
167.00	1856.04
168.00	1881.79
169.00	1950.45
170.00	1919.24
171.00	1891.15
172.00	1863.85
173.00	1880.23
174.00	1933.28
175.00	1969.17
176.00	1961.37
177.00	1934.06
178.00	1928.60
179.00	1966.05
180.00	1966.05
181.00	1997.26
182.00	1978.53
183.00	1988.68
184.00	1956.69
185.00	1986.33
186.00	2033.15
187.00	2068.25
188.00	2090.88
189.00	2080.74
190.00	2100.24
191.00	2105.70
192.00	2154.85
193.00	2152.51
194.00	2201.66
195.00	2193.08
196.00	2217.27
197.00	2188.40
198.00	2206.34
199.00	2204.00
200.00	2217.27
201.00	2235.21
202.00	2236.77
203.00	2263.30
204.00	2288.26
205.00	2328.83
206.00	2310.11
207.00	2290.60
208.00	2271.10
209.00	2328.83
210.00	2354.58
211.00	2397.49
212.00	2412.31
213.00	2429.48
214.00	2441.18
215.00	2435.72
216.00	2484.09
217.00	2525.44
218.00	2544.94
219.00	2537.92
220.00	2502.03
221.00	2488.77
222.00	2467.70
223.00	2484.09
224.00	2517.64
225.00	2571.47
226.00	2583.95
227.00	2602.68
228.00	2571.47
229.00	2597.99
230.00	2612.04
231.00	2628.42
232.00	2633.10
233.00	2683.03
234.00	2700.20
235.00	2736.09
236.00	2736.09
237.00	2778.22
238.00	2808.64
239.00	2796.16
240.00	2807.08
241.00	2821.13
242.00	2885.10
243.00	2906.95
244.00	2952.98
245.00	2943.61
246.00	3006.81
247.00	3027.09
248.00	3075.46
249.00	3056.74
250.00	3045.04
251.00	3026.31
252.00	3031.77
253.00	3087.17
254.00	3125.40
255.00	3156.60
256.00	3121.49
257.00	3134.76
258.00	3170.65
259.00	3248.66
260.00	3325.90
261.00	3339.16
262.00	3336.82
263.00	3300.16
264.00	3348.53
265.00	3364.13
266.00	3368.81
267.00	3331.36
268.00	3368.03
269.00	3404.70
270.00	3486.62
271.00	3499.88
272.00	3520.95
273.00	3534.99
274.00	3574.00
275.00	3652.02
276.00	3626.27
277.00	3634.07
278.00	3591.16
279.00	3667.62
280.00	3702.73
281.00	3753.44
282.00	3730.81
283.00	3717.55
284.00	3755.00
285.00	3801.03
286.00	3862.66
287.00	3813.51
288.00	3796.35
289.00	3806.49
290.00	3850.96
291.00	3886.07
292.00	3891.53
293.00	3946.14
294.00	3946.14
295.00	3980.47
296.00	3987.49
297.00	4004.66
298.00	3993.73
299.00	4019.48
300.00	4046.01
301.00	3999.98
302.00	3934.44
303.00	3950.04
304.00	4024.16
305.00	4086.58
306.00	4090.48
307.00	4044.45
308.00	4047.57
309.00	4063.95
310.00	4145.87
311.00	4180.20
312.00	4198.92
313.00	4163.03
314.00	4108.42
315.00	4104.52
316.00	4155.23
317.00	4216.87
318.00	4219.21
319.00	4219.21
320.00	4252.75
321.00	4303.46
322.00	4306.59
323.00	4308.93
324.00	4340.91
325.00	4418.93
326.00	4451.70
327.00	4461.84
328.00	4441.56
329.00	4477.44
330.00	4551.56
331.00	4555.46
332.00	4524.26
333.00	4459.50
334.00	4501.63
335.00	4606.17
336.00	4684.19
337.00	4707.60
338.00	4696.68
339.00	4728.66
340.00	4802.00
341.00	4794.98
342.00	4776.25
343.00	4805.90
344.00	4822.28
345.00	4900.30
346.00	4912.78
347.00	4943.99
348.00	4929.95
349.00	4954.13
350.00	5000.94
351.00	5054.00
352.00	5066.48
353.00	5063.36
354.00	5046.20
355.00	5019.67
356.00	5077.40
357.00	5096.13
358.00	5126.55
359.00	5106.27
360.00	5106.27
361.00	5163.22
362.00	5230.32
363.00	5298.97
364.00	5274.79
365.00	5259.96
366.00	5255.28
367.00	5363.73
368.00	5416.00
369.00	5467.49
370.00	5469.05
371.00	5485.44
372.00	5525.22
373.00	5460.47
374.00	5441.75
375.00	5456.57
376.00	5522.88
377.00	5579.84
378.00	5585.30
379.00	5659.42
380.00	5716.37
381.00	5785.80
382.00	5817.01
383.00	5832.62
384.00	5802.19
385.00	5753.82
386.00	5835.74
387.00	5946.52
388.00	6100.22
389.00	6157.95
390.00	6183.70
391.00	6195.40
392.00	6218.02
393.00	6263.27
394.00	6267.95
395.00	6252.35
396.00	6349.87
397.00	6423.21
398.00	6536.34
399.00	6537.90
400.00	6537.90
401.00	6563.64
402.00	6594.07
403.00	6770.39
404.00	6860.89
405.00	6898.34
406.00	6862.45
407.00	6772.73
408.00	6696.27
409.00	6610.45
410.00	6613.57
411.00	6722.02
412.00	6849.19
413.00	6947.49
414.00	6935.01
415.00	6839.05
416.00	6838.27
417.00	6871.81
418.00	6958.41
419.00	6998.98
420.00	7002.88
421.00	6989.62
422.00	6946.71
423.00	6994.30
424.00	7059.06
425.00	7148.00
426.00	7224.45
427.00	7232.26
428.00	7251.76
429.00	7179.20
430.00	7151.12
431.00	7089.48
432.00	7135.51
433.00	7183.88
434.00	7275.95
435.00	7309.49
436.00	7328.22
437.00	7322.76
438.00	7324.32
439.00	7343.04
440.00	7389.85
441.00	7457.73
442.00	7534.96
443.00	7570.07
444.00	7588.02
445.00	7643.41
446.00	7647.31
447.00	7705.82
448.00	7694.90
449.00	7693.34
450.00	7738.59
451.00	7768.24
452.00	7900.09
453.00	7937.54
454.00	7960.94
455.00	8015.55
456.00	8046.76
457.00	8172.37
458.00	8168.47
459.00	8144.28
460.00	8104.50
461.00	8056.12
462.00	8095.91
463.00	8178.61
464.00	8265.21
465.00	8424.37
466.00	8410.32
467.00	8489.12
468.00	8388.48
469.00	8469.62
470.00	8448.55
471.00	8542.18
472.00	8596.79
473.00	8707.57
474.00	8763.75
475.00	8758.28
476.00	8731.76
477.00	8764.53
478.00	8819.14
479.00	8940.07
480.00	8888.57
481.00	8914.32
482.00	8936.17
483.00	9032.91
484.00	9115.61
485.00	9149.93
486.00	9231.07
487.00	9217.03
488.00	9257.60
489.00	9267.74
490.00	9256.04
491.00	9249.80
492.00	9329.38
493.00	9476.83
494.00	9522.86
495.00	9459.67
496.00	9436.26
497.00	9448.74
498.00	9515.84
499.00	9640.67
500.00	9684.36
501.00	9744.43
502.00	9695.28
503.00	9726.49
504.00	9787.34
505.00	9898.91
506.00	9982.38
507.00	10043.24
508.00	10076.79
509.00	10193.03
510.00	10234.38
511.00	10261.69
512.00	10308.50
513.00	10368.57
514.00	10396.66
515.00	10367.79
516.00	10352.97
517.00	10454.39
518.00	10499.64
519.00	10465.32
520.00	10403.68
521.00	10310.84
522.00	10399.78
523.00	10451.27
524.00	10650.22
525.00	10746.18
526.00	10735.26
527.00	10723.55
528.00	10739.94
529.00	10810.93
530.00	10858.53
531.00	10810.15
532.00	10888.95
533.00	10893.63
534.00	10862.43
535.00	10825.76
536.00	10840.58
537.00	10882.71
538.00	10951.37
539.00	10979.45
540.00	11161.23
541.00	11148.75
542.00	11177.62
543.00	11164.36
544.00	11234.57
545.00	11311.81
546.00	11350.04
547.00	11439.76
548.00	11534.16
549.00	11726.08
550.00	11768.99
551.00	11882.12
552.00	11910.99
553.00	11988.22
554.00	11973.40
555.00	11935.17
556.00	11912.55
557.00	11975.74
558.00	12046.74
559.00	12236.32
560.00	12403.28
561.00	12471.93
562.00	12354.13
563.00	12375.97
564.00	12482.08
565.00	12754.36
566.00	12840.18
567.00	12772.30
568.00	12755.14
569.00	12632.65
570.00	12729.39
571.00	12974.37
572.00	13188.14
573.00	13329.35
574.00	13219.35
575.00	13221.69
576.00	13438.58
577.00	13546.24
578.00	13736.60
579.00	13738.16
580.00	13816.18
581.00	13898.10
582.00	14027.61
583.00	14086.90
584.00	14200.03
585.00	14300.67
586.00	14503.52
587.00	14427.06
588.00	14343.58
589.00	14406.78
590.00	14593.24
591.00	14789.06
592.00	14934.96
593.00	15128.44
594.00	15279.80
595.00	15318.03
596.00	15389.80
597.00	15532.58
598.00	15822.80
599.00	16027.99
600.00	16197.29
601.00	16149.70
602.00	16178.56
603.00	16210.55
604.00	16559.29
605.00	16845.62
606.00	16962.64
607.00	16851.08
608.00	16889.31
609.00	17100.73
610.00	17341.03
611.00	17359.75
612.00	17460.40
613.00	17582.88
614.00	17697.57
615.00	17796.65
616.00	17896.52
617.00	18125.89
618.00	18263.98
619.00	18391.93
620.00	18528.46
621.00	18660.31
622.00	18985.65
623.00	19279.77
624.00	19433.47
625.00	19436.59
626.00	19489.64
627.00	19753.34
628.00	19877.39
629.00	20063.07
630.00	20123.15
631.00	20226.91
632.00	20186.34
633.00	20570.19
634.00	20799.56
635.00	21087.45
636.00	21067.94
637.00	21363.63
638.00	21574.28
639.00	21667.90
640.00	21684.28
641.00	21699.11
642.00	22015.08
643.00	22338.85
644.00	22693.05
645.00	22671.21
646.00	22691.49
647.00	22669.65
648.00	22969.24
649.00	23063.64
650.00	23363.23
651.00	23506.78
652.00	23616.79
653.00	23740.83
654.00	23844.60
655.00	24209.72
656.00	24374.34
657.00	24680.95
658.00	24760.53
659.00	24912.66
660.00	24999.26
661.00	25227.07
662.00	25372.97
663.00	25521.20
664.00	25607.02
665.00	25788.80
666.00	26105.56
667.00	26332.59
668.00	26480.04
669.00	26544.80
670.00	26732.04
671.00	26847.50
672.00	26923.18
673.00	27024.61
674.00	27216.53
675.00	27445.12
676.00	27538.74
677.00	27729.89
678.00	27832.09
679.00	28070.04
680.00	28243.24
681.00	28496.02
682.00	28763.62
683.00	29090.52
684.00	29329.25
685.00	29413.51
686.00	29433.80
687.00	29507.91
688.00	29541.46
689.00	29891.76
690.00	30102.41
691.00	30409.02
692.00	30460.51
693.00	30666.48
694.00	30926.28
695.00	31100.26
696.00	31201.68
697.00	31283.60
698.00	31537.16
699.00	31589.43
700.00	31659.65
701.00	31725.96
702.00	31863.27
703.00	32236.98
704.00	32511.60
705.00	32865.02
706.00	33049.92
707.00	33218.44
708.00	33383.84
709.00	33500.09
710.00	33569.52
711.00	33627.26
712.00	33812.94
713.00	33958.83
714.00	34086.78
715.00	34171.04
716.00	34214.73
717.00	34481.55
718.00	34430.06
719.00	34607.94
720.00	34710.14
721.00	34920.01
722.00	35130.66
723.00	35208.68
724.00	35540.25
725.00	35548.84
726.00	35604.23
727.00	35626.07
728.00	35761.05
729.00	35870.27
730.00	35962.33
731.00	36086.38
732.00	36186.24
733.00	36105.10
734.00	36085.60
735.00	36213.55
736.00	36415.62
737.00	36730.03
738.00	37028.84
739.00	37203.60
740.00	37276.93
741.00	37479.00
742.00	37625.67
743.00	37636.59
744.00	37575.74
745.00	37752.06
746.00	38053.99
747.00	38377.76
748.00	38584.51
749.00	38742.89
750.00	38780.34
751.00	38703.88
752.00	38937.93
753.00	38989.42
754.00	39305.40
755.00	39250.78
756.00	39507.46
757.00	39553.49
758.00	39646.33
759.00	39645.55
760.00	39700.95
761.00	39881.95
762.00	40044.23
763.00	40359.42
764.00	40405.45
765.00	40526.38
766.00	40516.23
767.00	40854.05
768.00	41011.65
769.00	41389.25
770.00	41591.32
771.00	41725.51
772.00	41746.58
773.00	41698.98
774.00	41747.36
775.00	41800.41
776.00	42070.35
777.00	42331.71
778.00	42400.36
779.00	42523.63
780.00	42493.21
781.00	42743.64
782.00	42726.48
783.00	42957.41
784.00	42832.58
785.00	42937.13
786.00	43107.99
787.00	43499.64
788.00	43894.41
789.00	44171.37
790.00	44207.26
791.00	44227.54
792.00	44268.89
793.00	44455.36
794.00	44551.32
795.00	44526.35
796.00	44650.40
797.00	44788.49
798.00	45010.84
799.00	45133.33
800.00	45254.26
801.00	45373.63
802.00	45531.22
803.00	45574.13
804.00	45755.13
805.00	45960.32
806.00	46197.49
807.00	46210.76
808.00	46210.76
809.00	46251.33
810.00	46491.62
811.00	46674.96
812.00	46717.87
813.00	46799.79
814.00	46941.00
815.00	47161.01
816.00	47213.29
817.00	47253.08
818.00	47323.29
819.00	47408.33
820.00	47459.82
821.00	47558.13
822.00	47624.44
823.00	47682.95
824.00	47698.56
825.00	47869.42
826.00	48001.27
827.00	48342.99
828.00	48353.91
829.00	48513.06
830.00	48505.26
831.00	48749.46
832.00	48851.66
833.00	48783.79
834.00	48832.16
835.00	48864.92
836.00	49080.25
837.00	49161.39
838.00	49364.24
839.00	49382.18
840.00	49658.37
841.00	49844.83
842.00	50193.57
843.00	50349.60
844.00	50574.30
845.00	50701.46
846.00	50657.77
847.00	50568.05
848.00	50544.65
849.00	50609.40
850.00	50686.64
851.00	50763.10
852.00	50786.50
853.00	50983.11
854.00	51026.02
855.00	51218.72
856.00	51210.92
857.00	51405.19
858.00	51593.99
859.00	51640.80
860.00	51567.46
861.00	51377.88
862.00	51498.81
863.00	51552.64
864.00	51629.10
865.00	51480.86
866.00	51665.77
867.00	51735.98
868.00	52060.54
869.00	52137.77
870.00	52328.92
871.00	52189.27
872.00	52155.72
873.00	52204.09
874.00	52427.22
875.00	52632.41
876.00	52765.04
877.00	52800.93
878.00	52778.30
879.00	52793.90
880.00	52864.12
881.00	53029.52
882.00	53072.43
883.00	53127.82
884.00	52974.12
885.00	52870.36
886.00	52987.39
887.00	53204.28
888.00	53392.30
889.00	53289.32
890.00	53265.91
891.00	53243.29
892.00	53451.59
893.00	53563.94
894.00	53642.74
895.00	53597.49
896.00	53593.59
897.00	53651.32
898.00	53717.64
899.00	53826.08
900.00	53953.25
901.00	54049.21
902.00	54132.69
903.00	54171.70
904.00	54277.02
905.00	54338.66
906.00	54465.05
907.00	54494.69
908.00	54387.81
909.00	54521.22
910.00	54532.14
911.00	54684.28
912.00	54495.47
913.00	54573.49
914.00	54551.65
915.00	54599.24
916.00	54526.68
917.00	54470.51
918.00	54481.43
919.00	54342.56
920.00	54472.07
921.00	54561.79
922.00	54826.27
923.00	54925.35
924.00	55036.92
925.00	55235.08
926.00	55343.53
927.00	55468.36
928.00	55404.38
929.00	55478.50
930.00	55469.92
931.00	55487.86
932.00	55462.89
933.00	55530.77
934.00	55467.58
935.00	55560.42
936.00	55603.33
937.00	55748.44
938.00	55636.09
939.00	55537.01
940.00	55579.92
941.00	55586.16
942.00	55789.01
943.00	55931.78
944.00	56074.55
945.00	56147.11
946.00	56151.79
947.00	56168.18
948.00	56161.93
949.00	56150.23
950.00	56324.99
951.00	56324.21
952.00	56347.62
953.00	56357.76
954.00	56482.59
955.00	56616.78
956.00	56640.18
957.00	56623.80
958.00	56725.22
959.00	56847.71
960.00	56868.00
961.00	56787.64
962.00	56748.63
963.00	56794.66
964.00	56955.38
965.00	57014.67
966.00	57218.30
967.00	57325.18
968.00	57411.00
969.00	57300.22
970.00	57341.56
971.00	57463.27
972.00	57638.81
973.00	57586.54
974.00	57609.95
975.00	57613.07
976.00	57576.40
977.00	57462.49
978.00	57465.61
979.00	57576.40
980.00	57659.88
981.00	57822.93
982.00	57833.86
983.00	57903.29
984.00	57836.20
985.00	57805.77
986.00	57765.98
987.00	57639.59
988.00	57773.00
989.00	57783.93
990.00	58028.12
991.00	57992.23
992.00	58145.93
993.00	58038.26
994.00	58226.29
995.00	58372.96
996.00	58531.34
997.00	58713.90
998.00	58766.95
999.00	58915.18
1000.00	58839.51
1001.00	58766.17
1002.00	58687.37
1003.00	58594.53
1004.00	58649.14
1005.00	58569.57
1006.00	58597.65
1007.00	58546.94
1008.00	58590.63
1009.00	58586.73
1010.00	58671.77
1011.00	58734.96
1012.00	58861.35
1013.00	58942.49
1014.00	58985.40
1015.00	58993.98
1016.00	58944.83
1017.00	59121.93
1018.00	59146.90
1019.00	59249.88
1020.00	59221.80
1021.00	59355.99
1022.00	59456.63
1023.00	59458.19
1024.00	59337.26
1025.00	59342.72
1026.00	59427.76
1027.00	59595.50
1028.00	59678.98
1029.00	59632.95
1030.00	59663.38
1031.00	59708.63
1032.00	59839.70
1033.00	59847.50
1034.00	59816.29
1035.00	59826.43
1036.00	59884.95
1037.00	59875.58
1038.00	59854.52
1039.00	59825.65
1040.00	59888.07
1041.00	59998.07
1042.00	59988.71
1043.00	60020.70
1044.00	60017.58
1045.00	60270.36
1046.00	60399.08
1047.00	60386.60
1048.00	60372.56
1049.00	60309.36
1050.00	60459.94
1051.00	60383.48
1052.00	60473.20
1053.00	60520.79
1054.00	60524.69
1055.00	60433.41
1056.00	60306.24
1057.00	60471.64
1058.00	60559.80
1059.00	60604.27
1060.00	60612.07
1061.00	60708.04
1062.00	60903.08
1063.00	60931.17
1064.00	60882.80
1065.00	60784.49
1066.00	60715.06
1067.00	60794.64
1068.00	60835.98
1069.00	60846.91
1070.00	60825.84
1071.00	60828.96
1072.00	60961.59
1073.00	61051.31
1074.00	61153.52
1075.00	61162.88
1076.00	61225.29
1077.00	61307.21
1078.00	61325.16
1079.00	61299.41
1080.00	61289.27
1081.00	61401.61
1082.00	61510.84
1083.00	61516.30
1084.00	61478.07
1085.00	61409.42
1086.00	61426.58
1087.00	61442.96
1088.00	61472.61
1089.00	61545.95
1090.00	61560.77
1091.00	61611.48
1092.00	61656.73
1093.00	61616.16
1094.00	61607.58
1095.00	61594.32
1096.00	61665.31
1097.00	61741.77
1098.00	61682.48
1099.00	61707.44
1100.00	61723.83
1101.00	61768.30
1102.00	61804.19
1103.00	61792.48
1104.00	61847.10
1105.00	61966.46
1106.00	61975.83
1107.00	61988.31
1108.00	61921.21
1109.00	62011.71
1110.00	62096.75
1111.00	62046.82
1112.00	62010.15
1113.00	61943.84
1114.00	61985.97
1115.00	61943.84
1116.00	61919.65
1117.00	61986.75
1118.00	62044.48
1119.00	62095.97
1120.00	62088.17
1121.00	62120.94
1122.00	62202.86
1123.00	62146.68
1124.00	62189.59
1125.00	62130.30
1126.00	62216.90
1127.00	62181.01
1128.00	62180.23
1129.00	62143.56
1130.00	62149.81
1131.00	62228.60
1132.00	62257.47
1133.00	62294.92
1134.00	62247.33
1135.00	62234.06
1136.00	62237.97
1137.00	62255.91
1138.00	62337.83
1139.00	62410.38
1140.00	62470.46
1141.00	62557.84
1142.00	62540.67
1143.00	62534.43
1144.00	62525.85
1145.00	62552.38
1146.00	62612.45
1147.00	62526.63
1148.00	62604.65
1149.00	62561.74
1150.00	62630.40
1151.00	62504.01
1152.00	62491.52
1153.00	62395.56
1154.00	62333.15
1155.00	62297.26
1156.00	62337.83
1157.00	62502.45
1158.00	62528.97
1159.00	62627.27
1160.00	62666.28
1161.00	62784.87
1162.00	62732.60
1163.00	62559.40
1164.00	62454.07
1165.00	62475.14
1166.00	62543.80
1167.00	62652.24
1168.00	62796.57
1169.00	62895.66
1170.00	62885.51
1171.00	62802.03
1172.00	62723.24
1173.00	62683.45
1174.00	62680.33
1175.00	62738.06
1176.00	62718.56
1177.00	62685.01
1178.00	62649.90
1179.00	62660.04
1180.00	62697.49
1181.00	62672.52
1182.00	62728.70
1183.00	62656.92
1184.00	62701.39
1185.00	62722.46
1186.00	62803.59
1187.00	62860.55
1188.00	62912.04
1189.00	62934.66
1190.00	62902.68
1191.00	62822.32
1192.00	62662.38
1193.00	62646.00
1194.00	62647.56
1195.00	62710.75
1196.00	62692.81
1197.00	62731.04
1198.00	62852.75
1199.00	62956.51
1200.00	63012.68
1201.00	63043.11
1202.00	62987.72
1203.00	62925.30
1204.00	62758.34
1205.00	62744.30
1206.00	62705.29
1207.00	62859.77
1208.00	62919.06
1209.00	62890.19
1210.00	62830.12
1211.00	62873.03
1212.00	63029.85
1213.00	63061.83
1214.00	62890.97
1215.00	62810.62
1216.00	62745.08
1217.00	62862.11
1218.00	62887.07
1219.00	62967.43
1220.00	63048.57
1221.00	63079.78
1222.00	63100.84
1223.00	63133.61
1224.00	63116.45
1225.00	63091.48
1226.00	63008.78
1227.00	62941.69
1228.00	62870.69
1229.00	62830.90
1230.00	62863.67
1231.00	62988.50
1232.00	63047.01
1233.00	63082.90
1234.00	63026.73
1235.00	63032.19
1236.00	63144.53
1237.00	63181.98
1238.00	63217.87
1239.00	63256.88
1240.00	63334.12
1241.00	63410.57
1242.00	63387.17
1243.00	63427.74
1244.00	63390.29
1245.00	63326.31
1246.00	63299.79
1247.00	63334.12
1248.00	63353.62
1249.00	63483.91
1250.00	63553.35
1251.00	63729.67
1252.00	63694.56
1253.00	63723.43
1254.00	63721.86
1255.00	63667.25
1256.00	63590.01
1257.00	63519.02
1258.00	63527.60
1259.00	63487.81
1260.00	63497.95
1261.00	63570.51
1262.00	63688.32
1263.00	63753.07
1264.00	63724.21
1265.00	63702.36
1266.00	63616.54
1267.00	63675.83
1268.00	63725.77
1269.00	63902.87
1270.00	63884.14
1271.00	63945.00
1272.00	64017.55
1273.00	64051.10
1274.00	64042.52
1275.00	63913.79
1276.00	63878.68
1277.00	63814.71
1278.00	63849.81
1279.00	63905.99
1280.00	63998.05
1281.00	64033.16
1282.00	64183.73
1283.00	64213.38
1284.00	64228.98
1285.00	64180.61
1286.00	64234.44
1287.00	64118.20
1288.00	64043.30
1289.00	63997.27
1290.00	64106.49
1291.00	64143.16
1292.00	64114.29
1293.00	64064.36
1294.00	64094.01
1295.00	64151.74
1296.00	64217.28
1297.00	64103.37
1298.00	64122.10
1299.00	64167.35
1300.00	64266.43
1301.00	64299.20
1302.00	64271.89
1303.00	64211.82
1304.00	64169.69
1305.00	64161.89
1306.00	64251.61
1307.00	64246.14
1308.00	64246.93
1309.00	64171.25
1310.00	64193.09
1311.00	64218.84
1312.00	64395.16
1313.00	64473.18
1314.00	64499.70
1315.00	64470.84
1316.00	64470.06
1317.00	64444.31
1318.00	64412.32
1319.00	64427.93
1320.00	64556.66
1321.00	64626.09
1322.00	64707.23
1323.00	64676.02
1324.00	64779.01
1325.00	64756.38
1326.00	64793.83
1327.00	64782.13
1328.00	64655.74
1329.00	64558.22
1330.00	64456.79
1331.00	64611.27
1332.00	64701.77
1333.00	64795.39
1334.00	64767.30
1335.00	64755.60
1336.00	64670.56
1337.00	64715.03
1338.00	64795.39
1339.00	64934.26
1340.00	64973.27
1341.00	64978.73
1342.00	64952.21
1343.00	64918.66
1344.00	64860.15
1345.00	64885.11
1346.00	64877.31
1347.00	64885.11
1348.00	64790.71
1349.00	64715.03
1350.00	64594.88
1351.00	64622.19
1352.00	64592.54
1353.00	64686.17
1354.00	64589.42
1355.00	64553.54
1356.00	64551.98
1357.00	64658.08
1358.00	64754.04
1359.00	64833.62
1360.00	64859.37
1361.00	64963.13
1362.00	64934.26
1363.00	64943.62
1364.00	64803.97
1365.00	64874.97
1366.00	64798.51
1367.00	64819.58
1368.00	64789.15
1369.00	64839.08
1370.00	64798.51
1371.00	64715.81
1372.00	64679.92
1373.00	64749.36
1374.00	64796.95
1375.00	64755.60
1376.00	64793.83
1377.00	64782.13
1378.00	64903.06
1379.00	64873.41
1380.00	64892.91
1381.00	64897.59
1382.00	65007.60
1383.00	65102.78
1384.00	65118.38
1385.00	65056.75
1386.00	64984.97
1387.00	65031.78
1388.00	65119.16
1389.00	65173.00
1390.00	65112.14
1391.00	65022.42
1392.00	64962.35
1393.00	64860.15
1394.00	64791.49
1395.00	64654.96
1396.00	64672.12
1397.00	64656.52
1398.00	64703.33
1399.00	64747.02
1400.00	64837.52
1401.00	64875.75
1402.00	64908.52
1403.00	64798.51
1404.00	64789.15
1405.00	64725.17
1406.00	64742.34
1407.00	64747.80
1408.00	64673.68
1409.00	64637.79
1410.00	64613.61
1411.00	64699.43
1412.00	64748.58
1413.00	64773.55
1414.00	64784.47
1415.00	64851.56
1416.00	64881.21
1417.00	64818.80
1418.00	64756.38
1419.00	64700.21
1420.00	64784.47
1421.00	64790.71
1422.00	64876.53
1423.00	64755.60
1424.00	64672.90
1425.00	64554.32
1426.00	64507.50
1427.00	64543.39
1428.00	64592.54
1429.00	64627.65
1430.00	64694.75
1431.00	64701.77
1432.00	64819.58
1433.00	64811.77
1434.00	64761.06
1435.00	64706.45
1436.00	64633.11
1437.00	64677.58
1438.00	64629.21
1439.00	64647.94
1440.00	64663.54
1441.00	64747.80
1442.00	64892.13
1443.00	64913.20
1444.00	64877.31
1445.00	64733.76
1446.00	64701.77
1447.00	64662.76
1448.00	64667.44
1449.00	64548.07
1450.00	64591.76
1451.00	64612.83
1452.00	64667.44
1453.00	64658.86
1454.00	64671.34
1455.00	64719.71
1456.00	64686.17
1457.00	64629.99
1458.00	64750.92
1459.00	64769.64
1460.00	64744.68
1461.00	64594.10
1462.00	64409.98
1463.00	64282.81
1464.00	64211.04
1465.00	64346.79
1466.00	64456.79
1467.00	64435.73
1468.00	64434.95
1469.00	64496.58
1470.00	64543.39
1471.00	64466.94
1472.00	64428.71
1473.00	64445.87
1474.00	64541.83
1475.00	64523.11
1476.00	64519.21
1477.00	64523.89
1478.00	64438.07
1479.00	64403.74
1480.00	64308.56
1481.00	64398.28
1482.00	64452.11
1483.00	64475.52
1484.00	64414.66
1485.00	64302.32
1486.00	64230.54
1487.00	64143.94
1488.00	64101.81
1489.00	64062.80
1490.00	64108.83
1491.00	64179.83
1492.00	64219.62
1493.00	64207.14
1494.00	64225.08
1495.00	64262.53
1496.00	64278.91
1497.00	64146.28
1498.00	64143.16
1499.00	64127.56
1500.00	64277.35
1501.00	64273.45
1502.00	64262.53
1503.00	64091.67
1504.00	64061.24
1505.00	64165.01
1506.00	64267.21
1507.00	64242.24
1508.00	64186.85
1509.00	64266.43
1510.00	64335.87
1511.00	64295.30
1512.00	64176.71
1513.00	64074.51
1514.00	64049.54
1515.00	64075.29
1516.00	64026.13
1517.00	64014.43
1518.00	63958.26
1519.00	63991.03
1520.00	63954.36
1521.00	63903.65
1522.00	63868.54
1523.00	63877.12
1524.00	63859.18
1525.00	63919.25
1526.00	63907.55
1527.00	63907.55
1528.00	63903.65
1529.00	63824.07
1530.00	63784.28
1531.00	63778.82
1532.00	63775.70
1533.00	63838.89
1534.00	63793.64
1535.00	63844.35
1536.00	63907.55
1537.00	63937.19
1538.00	63964.50
1539.00	63902.87
1540.00	63877.12
1541.00	63849.03
1542.00	63799.88
1543.00	63859.96
1544.00	63837.33
1545.00	63910.67
1546.00	63898.19
1547.00	63883.36
1548.00	63880.24
1549.00	63813.93
1550.00	63831.09
1551.00	63762.43
1552.00	63830.31
1553.00	63861.52
1554.00	63831.09
1555.00	63732.01
1556.00	63686.76
1557.00	63658.67
1558.00	63651.65
1559.00	63639.95
1560.00	63621.22
1561.00	63648.53
1562.00	63692.22
1563.00	63783.50
1564.00	63773.36
1565.00	63759.31
1566.00	63769.46
1567.00	63784.28
1568.00	63764.77
1569.00	63643.85
1570.00	63621.22
1571.00	63529.94
1572.00	63494.83
1573.00	63445.68
1574.00	63399.65
1575.00	63424.62
1576.00	63313.05
1577.00	63314.61
1578.00	63347.38
1579.00	63379.37
1580.00	63355.18
1581.00	63308.37
1582.00	63333.34
1583.00	63401.21
1584.00	63353.62
1585.00	63332.56
1586.00	63237.37
1587.00	63174.96
1588.00	63141.41
1589.00	63171.84
1590.00	63236.59
1591.00	63168.72
1592.00	63125.03
1593.00	63118.79
1594.00	63178.08
1595.00	63121.13
1596.00	63147.65
1597.00	63248.30
1598.00	63338.02
1599.00	63323.97
1600.00	63269.36
1601.00	63270.92
1602.00	63255.32
1603.00	63167.16
1604.00	63177.30
1605.00	63182.76
1606.00	63243.62
1607.00	63136.73
1608.00	63071.98
1609.00	63028.29
1610.00	63071.98
1611.00	63146.87
1612.00	63131.27
1613.00	63145.31
1614.00	63093.82
1615.00	63119.57
1616.00	63131.27
1617.00	63155.46
1618.00	63140.63
1619.00	63019.70
1620.00	62911.26
1621.00	62880.83
1622.00	62972.89
1623.00	63056.37
1624.00	63097.72
1625.00	63121.91
1626.00	63181.98
1627.00	63142.97
1628.00	63112.55
1629.00	63053.25
1630.00	63153.90
1631.00	63250.64
1632.00	63263.12
1633.00	63146.87
1634.00	63081.34
1635.00	63052.47
1636.00	63000.98
1637.00	62905.80
1638.00	62750.54
1639.00	62719.34
1640.00	62725.58
1641.00	62809.06
1642.00	62837.14
1643.00	62827.78
1644.00	62743.52
1645.00	62751.32
1646.00	62772.39
1647.00	62794.23
1648.00	62805.16
1649.00	62763.03
1650.00	62730.26
1651.00	62547.70
1652.00	62480.60
1653.00	62592.95
1654.00	62680.33
1655.00	62664.72
1656.00	62571.10
1657.00	62627.27
1658.00	62743.52
1659.00	62797.35
1660.00	62840.26
1661.00	62841.04
1662.00	62911.26
1663.00	62881.61
1664.00	62869.13
1665.00	62821.54
1666.00	62780.19
1667.00	62695.93
1668.00	62611.67
1669.00	62601.53
1670.00	62683.45
1671.00	62706.85
1672.00	62805.16
1673.00	62811.40
1674.00	62887.07
1675.00	62765.37
1676.00	62645.22
1677.00	62507.91
1678.00	62431.45
1679.00	62391.66
1680.00	62301.16
1681.00	62323.78
1682.00	62373.72
1683.00	62386.20
1684.00	62305.84
1685.00	62259.81
1686.00	62228.60
1687.00	62223.92
1688.00	62138.88
1689.00	62053.84
1690.00	62039.02
1691.00	62047.60
1692.00	62117.82
1693.00	62169.31
1694.00	62250.45
1695.00	62373.72
1696.00	62394.00
1697.00	62289.46
1698.00	62163.07
1699.00	62050.72
1700.00	62005.47
1701.00	61875.96
1702.00	61875.96
1703.00	61892.35
1704.00	62002.35
1705.00	61984.41
1706.00	61961.78
1707.00	61875.18
1708.00	61740.21
1709.00	61675.46
1710.00	61640.35
1711.00	61822.91
1712.00	61830.71
1713.00	61893.13
1714.00	61763.62
1715.00	61707.44
1716.00	61624.74
1717.00	61529.56
1718.00	61481.19
1719.00	61473.39
1720.00	61544.39
1721.00	61549.85
1722.00	61579.49
1723.00	61602.12
1724.00	61588.86
1725.00	61519.42
1726.00	61346.22
1727.00	61307.99
1728.00	61286.15
1729.00	61368.85
1730.00	61429.70
1731.00	61388.35
1732.00	61366.51
1733.00	61354.80
1734.00	61410.20
1735.00	61468.71
1736.00	61458.57
1737.00	61441.40
1738.00	61311.89
1739.00	61283.81
1740.00	61117.63
1741.00	61158.98
1742.00	61086.42
1743.00	61036.49
1744.00	60942.87
1745.00	60829.74
1746.00	60937.41
1747.00	60899.18
1748.00	60971.74
1749.00	60903.08
1750.00	60790.73
1751.00	60648.74
1752.00	60541.08
1753.00	60512.99
1754.00	60523.13
1755.00	60454.48
1756.00	60458.38
1757.00	60371.78
1758.00	60328.87
1759.00	60225.88
1760.00	60184.54
1761.00	60228.23
1762.00	60264.11
1763.00	60124.46
1764.00	60009.00
1765.00	59945.02
1766.00	59966.09
1767.00	59954.38
1768.00	59868.56
1769.00	59861.54
1770.00	59859.20
1771.00	59869.34
1772.00	59888.07
1773.00	59886.51
1774.00	59884.95
1775.00	59806.93
1776.00	59700.82
1777.00	59676.64
1778.00	59698.48
1779.00	59747.64
1780.00	59647.77
1781.00	59617.35
1782.00	59588.48
1783.00	59497.98
1784.00	59480.03
1785.00	59409.04
1786.00	59410.60
1787.00	59291.23
1788.00	59153.14
1789.00	59140.66
1790.00	59153.14
1791.00	59191.37
1792.00	59137.54
1793.00	59029.87
1794.00	58933.91
1795.00	58940.15
1796.00	58870.71
1797.00	58880.08
1798.00	58819.22
1799.00	58850.43
1800.00	58662.41
1801.00	58529.00
1802.00	58461.12
1803.00	58479.06
1804.00	58415.09
1805.00	58258.27
1806.00	58155.29
1807.00	58154.51
1808.00	58017.98
1809.00	57964.93
1810.00	57854.92
1811.00	57826.06
1812.00	57655.98
1813.00	57487.46
1814.00	57418.80
1815.00	57387.60
1816.00	57284.61
1817.00	57167.58
1818.00	57001.41
1819.00	56945.23
1820.00	56893.74
1821.00	56889.06
1822.00	56807.14
1823.00	56851.61
1824.00	56835.23
1825.00	56829.77
1826.00	56751.75
1827.00	56727.56
1828.00	56711.18
1829.00	56617.56
1830.00	56424.85
1831.00	56300.81
1832.00	56090.16
1833.00	56009.02
1834.00	55775.75
1835.00	55671.98
1836.00	55481.62
1837.00	55510.49
1838.00	55465.24
1839.00	55454.31
1840.00	55390.34
1841.00	55351.33
1842.00	55334.17
1843.00	55159.41
1844.00	55021.31
1845.00	54880.10
1846.00	54858.26
1847.00	54705.34
1848.00	54472.85
1849.00	54194.32
1850.00	54074.96
1851.00	54092.90
1852.00	54073.40
1853.00	54046.09
1854.00	53952.47
1855.00	53841.68
1856.00	53717.64
1857.00	53759.76
1858.00	53749.62
1859.00	53618.55
1860.00	53230.80
1861.00	52942.92
1862.00	52644.11
1863.00	52597.30
1864.00	52467.01
1865.00	52423.32
1866.00	52198.63
1867.00	52177.56
1868.00	52102.67
1869.00	52094.86
1870.00	51946.63
1871.00	51880.31
1872.00	51729.74
1873.00	51551.86
1874.00	51361.50
1875.00	51250.71
1876.00	51134.46
1877.00	51085.31
1878.00	50926.94
1879.00	50765.44
1880.00	50616.43
1881.00	50405.00
1882.00	50280.95
1883.00	49968.10
1884.00	49854.19
1885.00	49688.01
1886.00	49665.39
1887.00	49492.97
1888.00	49324.45
1889.00	49190.26
1890.00	49185.58
1891.00	49201.18
1892.00	49022.52
1893.00	49086.50
1894.00	49028.76
1895.00	49055.29
1896.00	48822.79
1897.00	48719.81
1898.00	48446.75
1899.00	48257.17
1900.00	48077.72
1901.00	47817.92
1902.00	47604.94
1903.00	47269.46
1904.00	47352.16
1905.00	47301.45
1906.00	47249.17
1907.00	47079.88
1908.00	46822.42
1909.00	46562.62
1910.00	46302.82
1911.00	46117.14
1912.00	45942.38
1913.00	45861.24
1914.00	45726.27
1915.00	45670.09
1916.00	45414.19
1917.00	45070.14
1918.00	44837.64
1919.00	44340.67
1920.00	44086.33
1921.00	43872.56
1922.00	43840.57
1923.00	43809.37
1924.00	43570.63
1925.00	43576.87
1926.00	43322.54
1927.00	42920.74
1928.00	42470.58
1929.00	42154.61
1930.00	42134.32
1931.00	42036.02
1932.00	42014.96
1933.00	41865.94
1934.00	41709.91
1935.00	41666.22
1936.00	41270.67
1937.00	41113.85
1938.00	40767.45
1939.00	40919.59
1940.00	40639.50
1941.00	40335.23
1942.00	39910.03
1943.00	39707.97
1944.00	39528.53
1945.00	39318.66
1946.00	38951.98
1947.00	38639.12
1948.00	38574.37
1949.00	38664.87
1950.00	38507.27
1951.00	38340.32
1952.00	38254.50
1953.00	38157.75
1954.00	37889.37
1955.00	37506.30
1956.00	37254.31
1957.00	36907.13
1958.00	36616.90
1959.00	36340.72
1960.00	36114.47
1961.00	35867.93
1962.00	35700.97
1963.00	35506.71
1964.00	35432.59
1965.00	35296.84
1966.00	35085.41
1967.00	34731.21
1968.00	34476.09
1969.00	34249.06
1970.00	33938.55
1971.00	33640.52
1972.00	33376.82
1973.00	33278.52
1974.00	33161.49
1975.00	32939.92
1976.00	32669.98
1977.00	32341.52
1978.00	32165.98
1979.00	32038.81
1980.00	31848.45
1981.00	31545.74
1982.00	31230.55
1983.00	31001.96
1984.00	30932.52
1985.00	30749.18
1986.00	30646.19
1987.00	30522.15
1988.00	30270.93
1989.00	29999.43
1990.00	29850.41
1991.00	29757.57
1992.00	29486.07
1993.00	29057.75
1994.00	28908.74
1995.00	28776.89
1996.00	28591.20
1997.00	28340.77
1998.00	28212.82
1999.00	28135.58
2000.00	27895.28
2001.00	27683.08
2002.00	27636.27
2003.00	27385.83
2004.00	27138.51
2005.00	26680.55
2006.00	26519.05
2007.00	26410.60
2008.00	26181.23
2009.00	25852.00
2010.00	25561.77
2011.00	25432.26
2012.00	25497.02
2013.00	25312.11
2014.00	25090.54
2015.00	24872.09
2016.00	24759.75
2017.00	24752.73
2018.00	24551.44
2019.00	24411.79
2020.00	24159.01
2021.00	23981.13
2022.00	23729.13
2023.00	23545.79
2024.00	23438.90
2025.00	23272.73
2026.00	23120.59
2027.00	22902.14
2028.00	22725.82
2029.00	22607.23
2030.00	22533.90
2031.00	22490.99
2032.00	22311.55
2033.00	22151.61
2034.00	21958.13
2035.00	21759.96
2036.00	21532.15
2037.00	21346.47
2038.00	21065.60
2039.00	20724.66
2040.00	20416.49
2041.00	20388.41
2042.00	20269.82
2043.00	20198.04
2044.00	20068.53
2045.00	20037.33
2046.00	19949.17
2047.00	19833.70
>>>>>End Processed Spectral Data<<<<<
