SpectraSuite Data File
++++++++++++++++++++++++++++++++++++
Date: Thu Nov 16 13:32:52 EST 2017
User: cheriyan
Dark Spectrum Present: No
Reference Spectrum Present: No
Number of Sampled Component Spectra: 1
Spectrometers: USB2+H05261
Integration Time (usec): 90000 (USB2+H05261)
Spectra Averaged: 1 (USB2+H05261)
Boxcar Smoothing: 1 (USB2+H05261)
Correct for Electrical Dark: No (USB2+H05261)
Strobe/Lamp Enabled: No (USB2+H05261)
Correct for Detector Non-linearity: No (USB2+H05261)
Correct for Stray Light: No (USB2+H05261)
Number of Pixels in Processed Spectrum: 2048
>>>>>Begin Processed Spectral Data<<<<<
0.00	442.36
1.00	442.36
2.00	401.01
3.00	325.33
4.00	269.16
5.00	262.92
6.00	280.86
7.00	276.18
8.00	276.96
9.00	259.80
10.00	246.54
11.00	237.95
12.00	250.44
13.00	296.47
14.00	283.98
15.00	281.64
16.00	237.95
17.00	262.14
18.00	289.45
19.00	339.38
20.00	314.41
21.00	305.05
22.00	285.55
23.00	771.60
24.00	2416.99
25.00	4161.47
26.00	5498.70
27.00	5593.10
28.00	5524.44
29.00	5281.81
30.00	5129.67
31.00	5132.01
32.00	5238.12
33.00	5227.98
34.00	5162.44
35.00	5024.35
36.00	4884.70
37.00	4690.43
38.00	4665.47
39.00	4729.44
40.00	4816.82
41.00	4798.88
42.00	4770.79
43.00	4744.27
44.00	4855.83
45.00	5029.81
46.00	5284.93
47.00	5498.70
48.00	5696.86
49.00	5778.00
50.00	5785.80
51.00	5725.73
52.00	5745.24
53.00	5809.21
54.00	5980.07
55.00	6162.63
56.00	6452.86
57.00	6708.76
58.00	6995.08
59.00	7187.79
60.00	7341.48
61.00	7372.69
62.00	7257.22
63.00	7039.55
64.00	6728.26
65.00	6400.58
66.00	6143.13
67.00	5982.41
68.00	5929.36
69.00	5978.51
70.00	6146.25
71.00	6450.52
72.00	6725.92
73.00	7000.54
74.00	7080.12
75.00	7077.78
76.00	6886.64
77.00	6534.78
78.00	6177.45
79.00	5811.55
80.00	5572.04
81.00	5312.24
82.00	5126.55
83.00	4935.41
84.00	4766.11
85.00	4591.35
86.00	4485.25
87.00	4450.92
88.00	4481.35
89.00	4584.33
90.00	4822.28
91.00	5186.63
92.00	5630.55
93.00	5985.53
94.00	6342.85
95.00	6533.22
96.00	6594.85
97.00	6489.53
98.00	6374.84
99.00	6278.88
100.00	6211.00
101.00	6228.95
102.00	6365.48
103.00	6519.95
104.00	6639.32
105.00	6597.19
106.00	6541.02
107.00	6510.59
108.00	6556.62
109.00	6597.97
110.00	6585.49
111.00	6595.63
112.00	6608.11
113.00	6622.16
114.00	6668.97
115.00	6828.12
116.00	7094.16
117.00	7457.73
118.00	7778.38
119.00	8118.54
120.00	8376.00
121.00	8465.72
122.00	8537.49
123.00	8489.90
124.00	8585.87
125.00	8732.54
126.00	9025.11
127.00	9331.72
128.00	9550.17
129.00	9548.61
130.00	9395.69
131.00	9043.05
132.00	8699.77
133.00	8242.59
134.00	7727.67
135.00	7055.15
136.00	6260.93
137.00	5474.51
138.00	4863.63
139.00	4628.02
140.00	4840.23
141.00	5419.90
142.00	6164.19
143.00	6951.39
144.00	7650.43
145.00	8305.78
146.00	8934.61
147.00	9475.27
148.00	9845.07
149.00	10061.18
150.00	10037.78
151.00	9804.50
152.00	9257.60
153.00	8514.09
154.00	7651.21
155.00	6717.34
156.00	6072.13
157.00	5816.23
158.00	6183.70
159.00	6884.30
160.00	7946.90
161.00	9083.62
162.00	10263.25
163.00	11161.23
164.00	11768.99
165.00	12120.07
166.00	12500.02
167.00	12787.13
168.00	13205.30
169.00	13385.52
170.00	13612.56
171.00	13624.26
172.00	13724.90
173.00	13817.74
174.00	13919.95
175.00	14023.71
176.00	14114.99
177.00	14273.37
178.00	14585.44
179.00	14878.01
180.00	15016.10
181.00	15036.38
182.00	15109.72
183.00	15277.46
184.00	15411.65
185.00	15414.77
186.00	15392.92
187.00	15319.59
188.00	15165.89
189.00	14977.09
190.00	14875.66
191.00	15076.17
192.00	15378.88
193.00	15722.16
194.00	15680.81
195.00	15431.15
196.00	15059.79
197.00	14911.55
198.00	15057.45
199.00	15184.62
200.00	15329.73
201.00	15348.45
202.00	15399.94
203.00	15272.00
204.00	15127.66
205.00	14936.52
206.00	14836.66
207.00	14848.36
208.00	14997.37
209.00	15240.01
210.00	15417.11
211.00	15415.55
212.00	15406.19
213.00	15483.42
214.00	15755.71
215.00	16124.73
216.00	16444.60
217.00	16761.36
218.00	16979.03
219.00	17258.33
220.00	17351.95
221.00	17341.81
222.00	17046.90
223.00	16448.50
224.00	15842.31
225.00	15240.01
226.00	15090.99
227.00	15182.28
228.00	15615.27
229.00	16199.63
230.00	16761.36
231.00	17227.90
232.00	17686.65
233.00	18003.40
234.00	18359.94
235.00	18455.90
236.00	18703.22
237.00	18631.44
238.00	18555.77
239.00	18295.97
240.00	18121.21
241.00	18090.00
242.00	18116.53
243.00	18228.87
244.00	18436.40
245.00	18664.99
246.00	18933.37
247.00	18924.79
248.00	18902.95
249.00	18839.75
250.00	18951.32
251.00	18949.76
252.00	18979.40
253.00	18900.61
254.00	19055.08
255.00	19330.48
256.00	19738.52
257.00	20197.26
258.00	20458.62
259.00	20481.25
260.00	20281.52
261.00	20073.21
262.00	19792.35
263.00	19440.49
264.00	19182.25
265.00	19146.36
266.00	19211.90
267.00	19390.56
268.00	19528.65
269.00	19692.49
270.00	19772.07
271.00	19823.56
272.00	20191.02
273.00	20350.96
274.00	20464.08
275.00	20127.05
276.00	19871.93
277.00	19703.41
278.00	19657.38
279.00	19761.92
280.00	20198.04
281.00	20702.04
282.00	21222.42
283.00	21480.66
284.00	21714.71
285.00	21702.23
286.00	21637.47
287.00	21407.32
288.00	21152.20
289.00	20663.81
290.00	19992.86
291.00	19409.28
292.00	19274.31
293.00	19515.39
294.00	20021.72
295.00	20324.43
296.00	20342.38
297.00	20327.55
298.00	20364.22
299.00	20669.27
300.00	20765.23
301.00	20573.31
302.00	20553.80
303.00	20492.95
304.00	20514.80
305.00	20244.85
306.00	20046.69
307.00	19958.53
308.00	19835.26
309.00	19798.59
310.00	20085.70
311.00	20470.33
312.00	20533.52
313.00	20245.63
314.00	19625.39
315.00	19133.10
316.00	18906.07
317.00	18967.70
318.00	19296.94
319.00	19420.20
320.00	19757.24
321.00	19827.46
322.00	19743.20
323.00	19406.94
324.00	19190.83
325.00	19105.79
326.00	19101.89
327.00	18895.14
328.00	18323.27
329.00	17617.99
330.00	16854.20
331.00	16017.85
332.00	15144.05
333.00	14556.57
334.00	14423.16
335.00	14728.21
336.00	15264.97
337.00	16544.47
338.00	18212.49
339.00	20179.32
340.00	21570.38
341.00	22231.19
342.00	21911.32
343.00	21379.23
344.00	20677.07
345.00	20794.88
346.00	21170.15
347.00	21960.47
348.00	22345.09
349.00	22296.72
350.00	21518.11
351.00	20520.26
352.00	19822.78
353.00	19795.47
354.00	20206.62
355.00	20830.77
356.00	21470.51
357.00	21976.07
358.00	22115.72
359.00	22324.03
360.00	22528.44
361.00	23036.33
362.00	23343.72
363.00	23712.75
364.00	23966.31
365.00	24198.80
366.00	24325.97
367.00	24163.69
368.00	23855.52
369.00	23235.28
370.00	22913.84
371.00	22718.80
372.00	22664.97
373.00	22306.87
374.00	21722.51
375.00	21206.03
376.00	20908.01
377.00	21021.91
378.00	21439.31
379.00	22066.57
380.00	22682.13
381.00	23342.94
382.00	23782.18
383.00	24027.16
384.00	23978.79
385.00	23684.66
386.00	23652.67
387.00	23740.05
388.00	24268.23
389.00	24893.16
390.00	25536.02
391.00	25832.49
392.00	26060.30
393.00	26307.62
394.00	26739.84
395.00	26985.60
396.00	27255.54
397.00	27505.20
398.00	27741.59
399.00	27834.43
400.00	27704.92
401.00	27520.80
402.00	27366.32
403.00	27564.49
404.00	27884.36
405.00	28090.33
406.00	28245.59
407.00	28027.14
408.00	27807.90
409.00	27683.86
410.00	27942.88
411.00	28247.93
412.00	27896.06
413.00	27181.42
414.00	26384.86
415.00	25980.73
416.00	25918.31
417.00	25992.43
418.00	26374.72
419.00	26620.47
420.00	27037.87
421.00	27564.49
422.00	28000.61
423.00	28459.35
424.00	28574.04
425.00	28897.03
426.00	28818.24
427.00	28538.15
428.00	28268.99
429.00	28239.34
430.00	28472.62
431.00	28509.29
432.00	28450.77
433.00	28233.88
434.00	28311.12
435.00	28618.51
436.00	28966.47
437.00	29227.83
438.00	29240.31
439.00	29503.23
440.00	30079.78
441.00	30748.40
442.00	31108.06
443.00	31006.64
444.00	30804.57
445.00	30604.84
446.00	30361.43
447.00	30250.64
448.00	30193.69
449.00	29888.64
450.00	29474.37
451.00	28936.04
452.00	28570.92
453.00	28066.92
454.00	27828.97
455.00	27833.65
456.00	28119.98
457.00	28556.88
458.00	28969.59
459.00	29433.02
460.00	29674.87
461.00	29714.66
462.00	29790.34
463.00	29532.88
464.00	29454.08
465.00	29234.07
466.00	29301.17
467.00	29646.01
468.00	29782.54
469.00	30232.70
470.00	30428.52
471.00	30787.41
472.00	30790.53
473.00	30717.19
474.00	30916.92
475.00	31199.34
476.00	31466.16
477.00	31626.10
478.00	31669.79
479.00	31866.39
480.00	31559.00
481.00	31312.47
482.00	30698.47
483.00	30265.47
484.00	30281.85
485.00	30661.02
486.00	31136.93
487.00	31176.72
488.00	30995.71
489.00	30877.13
490.00	30643.07
491.00	30742.16
492.00	30760.10
493.00	31080.75
494.00	31097.92
495.00	31250.83
496.00	31433.39
497.00	31797.74
498.00	32027.89
499.00	32144.14
500.00	32020.87
501.00	32187.05
502.00	32184.71
503.00	32271.31
504.00	32357.91
505.00	32505.36
506.00	32830.69
507.00	32984.39
508.00	33082.69
509.00	33014.04
510.00	32864.24
511.00	32552.17
512.00	32382.09
513.00	32317.34
514.00	32357.91
515.00	32311.10
516.00	32152.72
517.00	31861.71
518.00	31487.23
519.00	31307.79
520.00	31559.78
521.00	31679.93
522.00	31839.09
523.00	32108.25
524.00	32481.17
525.00	32696.50
526.00	32439.04
527.00	32009.95
528.00	31363.18
529.00	30852.16
530.00	30631.37
531.00	30736.70
532.00	30931.74
533.00	31221.19
534.00	31373.32
535.00	31625.32
536.00	31509.85
537.00	31508.29
538.00	31479.43
539.00	31656.53
540.00	31787.60
541.00	31737.66
542.00	31787.60
543.00	32016.19
544.00	32048.18
545.00	32075.48
546.00	31574.61
547.00	31367.08
548.00	31013.66
549.00	31050.33
550.00	31094.80
551.00	31070.61
552.00	31140.83
553.00	31147.07
554.00	31506.73
555.00	31981.86
556.00	32590.40
557.00	33209.86
558.00	33644.42
559.00	34117.99
560.00	34323.96
561.00	34242.04
562.00	33838.69
563.00	33440.01
564.00	33125.60
565.00	33146.67
566.00	33280.86
567.00	33362.00
568.00	33349.51
569.00	33438.45
570.00	33822.30
571.00	34507.30
572.00	34863.06
573.00	35063.57
574.00	34888.81
575.00	34863.06
576.00	35102.57
577.00	35011.29
578.00	34969.94
579.00	34565.81
580.00	34550.21
581.00	34327.08
582.00	34391.05
583.00	34307.57
584.00	34701.56
585.00	35035.48
586.00	35665.08
587.00	35768.07
588.00	35972.47
589.00	36408.59
590.00	37140.40
591.00	37733.34
592.00	38114.06
593.00	38201.44
594.00	38047.75
595.00	37682.62
596.00	37634.25
597.00	37890.93
598.00	38245.91
599.00	38859.91
600.00	39459.87
601.00	39750.88
602.00	39716.55
603.00	39590.16
604.00	39899.89
605.00	40431.19
606.00	40540.42
607.00	40672.27
608.00	40699.58
609.00	41241.02
610.00	41552.31
611.00	41702.10
612.00	41950.20
613.00	42182.70
614.00	42442.49
615.00	42387.88
616.00	42473.70
617.00	42686.69
618.00	42835.70
619.00	42884.86
620.00	42835.70
621.00	43044.79
622.00	43193.81
623.00	43677.52
624.00	43657.23
625.00	43629.15
626.00	43276.51
627.00	43345.16
628.00	43625.25
629.00	44054.34
630.00	44524.79
631.00	44379.68
632.00	43708.72
633.00	42525.19
634.00	41156.76
635.00	39449.73
636.00	37811.35
637.00	37095.93
638.00	37622.55
639.00	38810.76
640.00	40176.08
641.00	41129.45
642.00	42082.83
643.00	42809.18
644.00	43766.46
645.00	44516.21
646.00	45440.72
647.00	46013.37
648.00	46666.38
649.00	46762.34
650.00	46731.14
651.00	46525.95
652.00	45992.31
653.00	46048.48
654.00	46320.76
655.00	47508.97
656.00	48461.57
657.00	49344.73
658.00	49931.43
659.00	50287.19
660.00	50409.68
661.00	50239.60
662.00	50027.39
663.00	49874.48
664.00	49673.19
665.00	49599.85
666.00	49714.54
667.00	49728.58
668.00	49251.11
669.00	48578.60
670.00	48113.61
671.00	48227.52
672.00	48797.05
673.00	49737.94
674.00	50731.11
675.00	51453.56
676.00	51569.80
677.00	51586.97
678.00	51247.59
679.00	51107.94
680.00	51093.89
681.00	51384.12
682.00	52008.26
683.00	52526.30
684.00	53090.37
685.00	53542.88
686.00	53715.29
687.00	53756.64
688.00	53414.93
689.00	53201.94
690.00	52805.61
691.00	52694.04
692.00	52632.41
693.00	52900.01
694.00	53393.08
695.00	53864.31
696.00	54138.93
697.00	54113.97
698.00	54195.88
699.00	54238.79
700.00	54415.90
701.00	54474.41
702.00	54458.80
703.00	54082.76
704.00	53551.46
705.00	53034.20
706.00	52971.00
707.00	53014.69
708.00	53390.74
709.00	53839.34
710.00	54329.30
711.00	54727.19
712.00	54757.61
713.00	54768.54
714.00	54520.44
715.00	54305.89
716.00	53762.89
717.00	53513.23
718.00	53180.09
719.00	53381.38
720.00	53307.26
721.00	53244.07
722.00	52901.57
723.00	52756.46
724.00	52662.83
725.00	52721.35
726.00	52807.17
727.00	53199.60
728.00	53380.60
729.00	53651.32
730.00	53780.05
731.00	54140.49
732.00	54440.86
733.00	54571.93
734.00	54507.96
735.00	54228.65
736.00	53808.92
737.00	53297.12
738.00	53034.20
739.00	53091.93
740.00	53478.12
741.00	53908.78
742.00	54273.90
743.00	54471.29
744.00	54610.94
745.00	54909.75
746.00	55258.49
747.00	55660.28
748.00	56005.12
749.00	56151.79
750.00	56144.77
751.00	55828.80
752.00	55733.62
753.00	55458.99
754.00	55406.72
755.00	55254.59
756.00	55141.46
757.00	54896.48
758.00	54714.70
759.00	54475.97
760.00	54255.96
761.00	54168.58
762.00	54340.22
763.00	54721.72
764.00	55087.63
765.00	55436.37
766.00	55822.56
767.00	56118.24
768.00	56164.28
769.00	56041.01
770.00	55904.48
771.00	55675.88
772.00	55561.98
773.00	55446.51
774.00	55597.87
775.00	55522.19
776.00	55537.79
777.00	55668.08
778.00	55906.82
779.00	56179.88
780.00	56352.30
781.00	56688.56
782.00	56794.66
783.00	56795.44
784.00	56488.83
785.00	56092.50
786.00	55746.88
787.00	55496.44
788.00	55470.70
789.00	55511.27
790.00	55511.27
791.00	55494.10
792.00	55405.94
793.00	55276.43
794.00	55146.92
795.00	54975.28
796.00	54991.67
797.00	54967.48
798.00	55108.69
799.00	55204.66
800.00	55377.08
801.00	55445.73
802.00	55671.98
803.00	55724.25
804.00	55919.30
805.00	56077.68
806.00	56240.73
807.00	55974.69
808.00	55183.59
809.00	53909.56
810.00	52569.99
811.00	51171.13
812.00	50160.80
813.00	49599.07
814.00	50091.37
815.00	51395.82
816.00	52836.03
817.00	53789.41
818.00	53728.56
819.00	53233.92
820.00	52433.46
821.00	52247.78
822.00	52419.42
823.00	53043.56
824.00	53585.78
825.00	54201.35
826.00	54539.16
827.00	54952.66
828.00	55190.61
829.00	55640.00
830.00	55821.78
831.00	55938.02
832.00	55815.54
833.00	55597.87
834.00	55372.39
835.00	55377.08
836.00	55645.46
837.00	55933.34
838.00	56090.16
839.00	56133.07
840.00	56264.92
841.00	56366.34
842.00	56406.91
843.00	56178.32
844.00	55774.19
845.00	55420.77
846.00	55201.53
847.00	55061.88
848.00	55101.67
849.00	55358.35
850.00	55810.07
851.00	56216.55
852.00	56550.46
853.00	56879.70
854.00	57082.55
855.00	57283.83
856.00	57158.22
857.00	56988.92
858.00	56780.62
859.00	56662.81
860.00	56558.27
861.00	56466.20
862.00	56619.12
863.00	56719.76
864.00	56601.18
865.00	56031.64
866.00	55297.50
867.00	54319.15
868.00	53435.21
869.00	52682.34
870.00	52389.77
871.00	52621.48
872.00	53191.79
873.00	53945.45
874.00	54585.19
875.00	55126.64
876.00	55549.49
877.00	55719.57
878.00	55882.63
879.00	56019.16
880.00	56342.16
881.00	56648.77
882.00	56938.21
883.00	57089.57
884.00	56985.02
885.00	56587.91
886.00	56160.37
887.00	55822.56
888.00	55768.72
889.00	55872.49
890.00	56155.69
891.00	56370.24
892.00	56677.63
893.00	56769.69
894.00	56897.64
895.00	56920.27
896.00	56864.10
897.00	56713.52
898.00	56568.41
899.00	56346.06
900.00	56152.57
901.00	55655.60
902.00	55156.28
903.00	54506.40
904.00	54037.51
905.00	54071.84
906.00	54312.13
907.00	54845.77
908.00	55086.85
909.00	55578.36
910.00	55720.35
911.00	55856.10
912.00	55545.59
913.00	55380.20
914.00	55150.04
915.00	55257.71
916.00	55363.81
917.00	55622.83
918.00	55913.84
919.00	56126.05
920.00	56438.90
921.00	56540.32
922.00	56800.90
923.00	56697.92
924.00	56410.81
925.00	55925.54
926.00	55501.12
927.00	55126.64
928.00	54626.54
929.00	54397.95
930.00	54383.13
931.00	54647.61
932.00	54965.14
933.00	55345.87
934.00	55587.72
935.00	55596.31
936.00	55523.75
937.00	55541.69
938.00	55482.40
939.00	55419.20
940.00	55214.02
941.00	54961.24
942.00	54720.94
943.00	54412.77
944.00	54385.47
945.00	54097.58
946.00	54005.52
947.00	53736.36
948.00	53771.47
949.00	53545.22
950.00	53534.29
951.00	53308.82
952.00	53176.19
953.00	53122.36
954.00	53495.28
955.00	53978.21
956.00	54279.36
957.00	54254.40
958.00	54395.61
959.00	54438.52
960.00	54458.80
961.00	54257.52
962.00	54191.98
963.00	54142.83
964.00	54090.56
965.00	53952.47
966.00	53936.09
967.00	54091.34
968.00	54325.39
969.00	54468.17
970.00	54850.45
971.00	55161.75
972.00	55356.79
973.00	54958.90
974.00	54701.44
975.00	54564.13
976.00	54600.02
977.00	54543.84
978.00	54447.10
979.00	54482.99
980.00	54429.16
981.00	54600.02
982.00	54484.55
983.00	54529.80
984.00	54351.92
985.00	54380.01
986.00	54226.31
987.00	54085.10
988.00	54128.79
989.00	53987.58
990.00	53932.18
991.00	53546.78
992.00	53348.61
993.00	53115.34
994.00	53129.38
995.00	53406.34
996.00	53670.04
997.00	54072.62
998.00	54181.84
999.00	54351.92
1000.00	54301.99
1001.00	54387.81
1002.00	54256.74
1003.00	54120.99
1004.00	54085.88
1005.00	54093.68
1006.00	54130.35
1007.00	53974.31
1008.00	53921.26
1009.00	53645.86
1010.00	53546.78
1011.00	53357.19
1012.00	53484.36
1013.00	53303.36
1014.00	53362.65
1015.00	53432.09
1016.00	53743.38
1017.00	54003.96
1018.00	54124.11
1019.00	54206.81
1020.00	53949.35
1021.00	53762.11
1022.00	53358.75
1023.00	53147.32
1024.00	52872.70
1025.00	52959.30
1026.00	53173.07
1027.00	53300.24
1028.00	53476.56
1029.00	53452.37
1030.00	53601.39
1031.00	53723.10
1032.00	53876.01
1033.00	54025.03
1034.00	53934.52
1035.00	53943.11
1036.00	53921.26
1037.00	53909.56
1038.00	53827.64
1039.00	53671.60
1040.00	53532.73
1041.00	53413.37
1042.00	53259.67
1043.00	53059.94
1044.00	52939.80
1045.00	52824.33
1046.00	52764.26
1047.00	52513.04
1048.00	52352.32
1049.00	52183.80
1050.00	52242.32
1051.00	52257.92
1052.00	52396.01
1053.00	52518.50
1054.00	52619.92
1055.00	52560.63
1056.00	52315.65
1057.00	51952.87
1058.00	51438.73
1059.00	50936.30
1060.00	50650.75
1061.00	50568.83
1062.00	50798.99
1063.00	50951.90
1064.00	51115.74
1065.00	51080.63
1066.00	50915.23
1067.00	50863.74
1068.00	50919.13
1069.00	51367.74
1070.00	51757.05
1071.00	52268.06
1072.00	52512.26
1073.00	52601.20
1074.00	52319.56
1075.00	51900.60
1076.00	51549.52
1077.00	51230.43
1078.00	51211.70
1079.00	51233.55
1080.00	51371.64
1081.00	51336.53
1082.00	51388.80
1083.00	51459.80
1084.00	51601.01
1085.00	51723.50
1086.00	51782.01
1087.00	51751.59
1088.00	51458.24
1089.00	51189.86
1090.00	50953.46
1091.00	50859.84
1092.00	50864.52
1093.00	50696.78
1094.00	50771.68
1095.00	50684.30
1096.00	50930.84
1097.00	50857.50
1098.00	50834.10
1099.00	50368.33
1100.00	50043.77
1101.00	49589.71
1102.00	49493.75
1103.00	49265.16
1104.00	49395.45
1105.00	49477.36
1106.00	49687.23
1107.00	49812.06
1108.00	49993.06
1109.00	50259.88
1110.00	50548.55
1111.00	50651.53
1112.00	50735.79
1113.00	50595.36
1114.00	50457.27
1115.00	50091.37
1116.00	49603.75
1117.00	49301.82
1118.00	49022.52
1119.00	48761.16
1120.00	48531.01
1121.00	48493.56
1122.00	48786.91
1123.00	48780.67
1124.00	48953.08
1125.00	48772.86
1126.00	48796.27
1127.00	48578.60
1128.00	48486.54
1129.00	48311.78
1130.00	47952.90
1131.00	47526.14
1132.00	47136.83
1133.00	46781.07
1134.00	46446.37
1135.00	46351.19
1136.00	46535.31
1137.00	47052.57
1138.00	47362.30
1139.00	47650.97
1140.00	47972.40
1141.00	48201.77
1142.00	48421.00
1143.00	48335.96
1144.00	48380.43
1145.00	48394.48
1146.00	48417.88
1147.00	48168.22
1148.00	47968.50
1149.00	47884.24
1150.00	48024.67
1151.00	47956.80
1152.00	47880.34
1153.00	47767.21
1154.00	47547.98
1155.00	47295.21
1156.00	47005.76
1157.00	46924.62
1158.00	46614.11
1159.00	46303.60
1160.00	46064.86
1161.00	46092.17
1162.00	46150.68
1163.00	46036.78
1164.00	45822.23
1165.00	45742.65
1166.00	45735.63
1167.00	46041.46
1168.00	46351.97
1169.00	46582.12
1170.00	46581.34
1171.00	46374.59
1172.00	46100.75
1173.00	46030.54
1174.00	46028.98
1175.00	46047.70
1176.00	45679.46
1177.00	45244.12
1178.00	44773.67
1179.00	44326.63
1180.00	44233.78
1181.00	44246.27
1182.00	44679.27
1183.00	44864.95
1184.00	45233.19
1185.00	45346.32
1186.00	45463.35
1187.00	45510.94
1188.00	45416.54
1189.00	45425.90
1190.00	45532.00
1191.00	45638.11
1192.00	45552.29
1193.00	45368.16
1194.00	45265.96
1195.00	45361.14
1196.00	45323.69
1197.00	45487.53
1198.00	45507.04
1199.00	45649.81
1200.00	45537.46
1201.00	45649.03
1202.00	45691.16
1203.00	45990.75
1204.00	45995.43
1205.00	46196.71
1206.00	46055.50
1207.00	46114.80
1208.00	45978.26
1209.00	45993.87
1210.00	45929.11
1211.00	45791.02
1212.00	45717.68
1213.00	45605.34
1214.00	45513.28
1215.00	45457.88
1216.00	45393.91
1217.00	45411.85
1218.00	45422.00
1219.00	45352.56
1220.00	45249.58
1221.00	44824.38
1222.00	44516.99
1223.00	44249.39
1224.00	44002.07
1225.00	43683.76
1226.00	43444.24
1227.00	43353.74
1228.00	43517.58
1229.00	43604.96
1230.00	43835.11
1231.00	43944.34
1232.00	44055.90
1233.00	44179.95
1234.00	44208.82
1235.00	44043.42
1236.00	43885.04
1237.00	43584.68
1238.00	43592.48
1239.00	43457.51
1240.00	43235.94
1241.00	42919.18
1242.00	42171.77
1243.00	41255.06
1244.00	40052.81
1245.00	38842.75
1246.00	37968.95
1247.00	37386.16
1248.00	37230.12
1249.00	37322.18
1250.00	37546.09
1251.00	38101.58
1252.00	38825.59
1253.00	39752.44
1254.00	40533.40
1255.00	41194.21
1256.00	41733.31
1257.00	42103.12
1258.00	42122.62
1259.00	41612.38
1260.00	41326.06
1261.00	41219.95
1262.00	41277.69
1263.00	41234.78
1264.00	41084.20
1265.00	41059.24
1266.00	40923.49
1267.00	41084.20
1268.00	41219.95
1269.00	41358.83
1270.00	41019.45
1271.00	40943.77
1272.00	40833.77
1273.00	41101.37
1274.00	41142.72
1275.00	41232.44
1276.00	41251.16
1277.00	40907.88
1278.00	40630.14
1279.00	40101.96
1280.00	40035.64
1281.00	39910.81
1282.00	39924.86
1283.00	39793.01
1284.00	39767.26
1285.00	39903.79
1286.00	40165.93
1287.00	40084.79
1288.00	40270.48
1289.00	40548.22
1290.00	41003.85
1291.00	40821.28
1292.00	40754.97
1293.00	40665.25
1294.00	40828.30
1295.00	40685.53
1296.00	40674.61
1297.00	40518.57
1298.00	40316.51
1299.00	40186.22
1300.00	40137.85
1301.00	40234.59
1302.00	40079.33
1303.00	39951.38
1304.00	39689.24
1305.00	39735.27
1306.00	39851.52
1307.00	40023.94
1308.00	40037.20
1309.00	39978.69
1310.00	40018.48
1311.00	40051.25
1312.00	40209.62
1313.00	40148.77
1314.00	40029.40
1315.00	39902.23
1316.00	39835.14
1317.00	39797.69
1318.00	39662.72
1319.00	39629.95
1320.00	39525.41
1321.00	39402.92
1322.00	39193.05
1323.00	39079.92
1324.00	39164.18
1325.00	39083.05
1326.00	38990.20
1327.00	38699.20
1328.00	38632.10
1329.00	38612.60
1330.00	38641.46
1331.00	38673.45
1332.00	38614.16
1333.00	38727.28
1334.00	38966.02
1335.00	39206.31
1336.00	39436.47
1337.00	39422.42
1338.00	39342.84
1339.00	39412.28
1340.00	39367.81
1341.00	39449.73
1342.00	39214.12
1343.00	39274.97
1344.00	39140.00
1345.00	39114.25
1346.00	39002.69
1347.00	39115.81
1348.00	39047.16
1349.00	39035.45
1350.00	38842.75
1351.00	38817.00
1352.00	38696.08
1353.00	38620.40
1354.00	38513.52
1355.00	38408.97
1356.00	38455.78
1357.00	38515.86
1358.00	38463.58
1359.00	38423.79
1360.00	38307.55
1361.00	38455.78
1362.00	38501.81
1363.00	38476.85
1364.00	38246.69
1365.00	38097.68
1366.00	37978.31
1367.00	37819.94
1368.00	37628.79
1369.00	37506.30
1370.00	37502.40
1371.00	37287.07
1372.00	37200.47
1373.00	37093.59
1374.00	37183.31
1375.00	37165.37
1376.00	37183.31
1377.00	37088.91
1378.00	37024.93
1379.00	36776.84
1380.00	36655.91
1381.00	36465.55
1382.00	36495.97
1383.00	36434.34
1384.00	36492.85
1385.00	36621.58
1386.00	36715.98
1387.00	36811.95
1388.00	36793.22
1389.00	36836.91
1390.00	36748.75
1391.00	36582.57
1392.00	36454.62
1393.00	36269.72
1394.00	36133.97
1395.00	35820.34
1396.00	35896.80
1397.00	35750.90
1398.00	36124.61
1399.00	35908.50
1400.00	35974.81
1401.00	35567.56
1402.00	35395.92
1403.00	35097.89
1404.00	34824.83
1405.00	34550.99
1406.00	34417.58
1407.00	34587.66
1408.00	35002.71
1409.00	35228.18
1410.00	35286.70
1411.00	35109.60
1412.00	35028.46
1413.00	34908.31
1414.00	34802.99
1415.00	34809.23
1416.00	34719.51
1417.00	34440.98
1418.00	33994.72
1419.00	33502.43
1420.00	33268.37
1421.00	33067.09
1422.00	33175.53
1423.00	33135.74
1424.00	33235.61
1425.00	33234.83
1426.00	33398.66
1427.00	33660.80
1428.00	33905.78
1429.00	34088.34
1430.00	34210.83
1431.00	34199.13
1432.00	34299.77
1433.00	34217.07
1434.00	34345.02
1435.00	34203.81
1436.00	34094.58
1437.00	33720.88
1438.00	33609.31
1439.00	33467.32
1440.00	33404.91
1441.00	33295.68
1442.00	33408.81
1443.00	33645.98
1444.00	33806.70
1445.00	33758.33
1446.00	33686.55
1447.00	33749.74
1448.00	33767.69
1449.00	33976.00
1450.00	33875.35
1451.00	33851.95
1452.00	33656.90
1453.00	33479.02
1454.00	33220.78
1455.00	32913.39
1456.00	32605.22
1457.00	32513.16
1458.00	32504.58
1459.00	32605.22
1460.00	32716.79
1461.00	32718.35
1462.00	32524.08
1463.00	32109.81
1464.00	31880.44
1465.00	31782.13
1466.00	31839.09
1467.00	31690.85
1468.00	31576.17
1469.00	31519.99
1470.00	31694.75
1471.00	31816.46
1472.00	31663.55
1473.00	31230.55
1474.00	31011.32
1475.00	30933.30
1476.00	30916.14
1477.00	30783.51
1478.00	30624.35
1479.00	30493.28
1480.00	30320.86
1481.00	30279.51
1482.00	30328.66
1483.00	30360.65
1484.00	30377.03
1485.00	30472.21
1486.00	30631.37
1487.00	30633.71
1488.00	30611.87
1489.00	30572.86
1490.00	30649.32
1491.00	30551.01
1492.00	30374.69
1493.00	29957.30
1494.00	29583.59
1495.00	28990.66
1496.00	28576.38
1497.00	28058.34
1498.00	27893.72
1499.00	27835.21
1500.00	28142.60
1501.00	28588.86
1502.00	28868.95
1503.00	28956.33
1504.00	28918.88
1505.00	28925.12
1506.00	28790.93
1507.00	28711.35
1508.00	28406.30
1509.00	28165.23
1510.00	27889.82
1511.00	27986.57
1512.00	28134.80
1513.00	28291.62
1514.00	28463.25
1515.00	28549.07
1516.00	28602.91
1517.00	28521.77
1518.00	28485.88
1519.00	28461.69
1520.00	28461.69
1521.00	28232.32
1522.00	28043.52
1523.00	27822.73
1524.00	27867.20
1525.00	28073.17
1526.00	28256.51
1527.00	28531.91
1528.00	28715.25
1529.00	28861.93
1530.00	28830.72
1531.00	28710.57
1532.00	28644.26
1533.00	28541.27
1534.00	28314.24
1535.00	28113.73
1536.00	28103.59
1537.00	28164.45
1538.00	28180.05
1539.00	27959.26
1540.00	27878.12
1541.00	27953.80
1542.00	28215.16
1543.00	28491.34
1544.00	28545.95
1545.00	28512.41
1546.00	28187.85
1547.00	28063.80
1548.00	27998.27
1549.00	28038.84
1550.00	27971.74
1551.00	27765.00
1552.00	27688.54
1553.00	27639.39
1554.00	27708.04
1555.00	27733.01
1556.00	27804.00
1557.00	27967.84
1558.00	28082.53
1559.00	28158.99
1560.00	28056.78
1561.00	28077.07
1562.00	28006.85
1563.00	28076.29
1564.00	28041.18
1565.00	28009.19
1566.00	27959.26
1567.00	27922.59
1568.00	27999.83
1569.00	27984.23
1570.00	27975.64
1571.00	27749.39
1572.00	27549.67
1573.00	27163.48
1574.00	27192.34
1575.00	27232.91
1576.00	27292.21
1577.00	27150.99
1578.00	27062.83
1579.00	26969.99
1580.00	26884.17
1581.00	26777.29
1582.00	26665.72
1583.00	26502.67
1584.00	26292.80
1585.00	26334.15
1586.00	26373.94
1587.00	26432.45
1588.00	26333.37
1589.00	26366.91
1590.00	26294.36
1591.00	26339.61
1592.00	26280.32
1593.00	26300.60
1594.00	26324.79
1595.00	26218.68
1596.00	26220.24
1597.00	26211.66
1598.00	26322.44
1599.00	26236.63
1600.00	26158.61
1601.00	26011.15
1602.00	26088.39
1603.00	25899.59
1604.00	25795.82
1605.00	25687.38
1606.00	25841.07
1607.00	25986.97
1608.00	25951.86
1609.00	25906.61
1610.00	25765.40
1611.00	25625.75
1612.00	25503.26
1613.00	25465.03
1614.00	25436.16
1615.00	25456.45
1616.00	25358.92
1617.00	25287.93
1618.00	25031.25
1619.00	24822.94
1620.00	24720.74
1621.00	24698.89
1622.00	24828.40
1623.00	24822.94
1624.00	24716.06
1625.00	24488.25
1626.00	24435.97
1627.00	24398.52
1628.00	24393.84
1629.00	24175.39
1630.00	24122.34
1631.00	23995.17
1632.00	24044.32
1633.00	23950.70
1634.00	23918.71
1635.00	23843.04
1636.00	23924.18
1637.00	23948.36
1638.00	24031.06
1639.00	23896.09
1640.00	23633.17
1641.00	23236.84
1642.00	22989.52
1643.00	22859.23
1644.00	22845.19
1645.00	22926.33
1646.00	23179.11
1647.00	23436.56
1648.00	23715.87
1649.00	24041.20
1650.00	24265.89
1651.00	24230.79
1652.00	24142.63
1653.00	24059.15
1654.00	23942.90
1655.00	23748.64
1656.00	23442.81
1657.00	23285.21
1658.00	23145.56
1659.00	23148.68
1660.00	23156.48
1661.00	23165.06
1662.00	23326.56
1663.00	23466.21
1664.00	23602.74
1665.00	23726.79
1666.00	23729.13
1667.00	23630.05
1668.00	23530.19
1669.00	23495.08
1670.00	23561.39
1671.00	23545.01
1672.00	23551.25
1673.00	23388.19
1674.00	23325.00
1675.00	23223.58
1676.00	23268.05
1677.00	22939.59
1678.00	22692.27
1679.00	22381.76
1680.00	22327.15
1681.00	22246.01
1682.00	22156.29
1683.00	21916.78
1684.00	21654.64
1685.00	21260.65
1686.00	20627.92
1687.00	19823.56
1688.00	18997.35
1689.00	18309.23
1690.00	17994.04
1691.00	18019.78
1692.00	18501.93
1693.00	19071.47
1694.00	19766.60
1695.00	20387.63
1696.00	20915.81
1697.00	21188.87
1698.00	21562.58
1699.00	21724.85
1700.00	21988.55
1701.00	22061.89
1702.00	22256.93
1703.00	22272.54
1704.00	22273.32
1705.00	22133.67
1706.00	22107.92
1707.00	21983.09
1708.00	21979.97
1709.00	21874.65
1710.00	21722.51
1711.00	21588.32
1712.00	21589.88
1713.00	21716.27
1714.00	21806.77
1715.00	21928.48
1716.00	21970.61
1717.00	22002.60
1718.00	21982.31
1719.00	22018.98
1720.00	21979.19
1721.00	21844.22
1722.00	21841.88
1723.00	21730.31
1724.00	21769.32
1725.00	21703.79
1726.00	21784.15
1727.00	21861.38
1728.00	21919.90
1729.00	21891.03
1730.00	21865.28
1731.00	21674.92
1732.00	21670.24
1733.00	21459.59
1734.00	21571.94
1735.00	21461.15
1736.00	21431.51
1737.00	21223.20
1738.00	21111.63
1739.00	21004.75
1740.00	20886.94
1741.00	20889.28
1742.00	20879.92
1743.00	20837.01
1744.00	20690.34
1745.00	20612.32
1746.00	20637.28
1747.00	20677.85
1748.00	20652.89
1749.00	20641.96
1750.00	20648.21
1751.00	20651.33
1752.00	20556.14
1753.00	20514.02
1754.00	20563.17
1755.00	20549.12
1756.00	20439.12
1757.00	20250.32
1758.00	20146.55
1759.00	20003.78
1760.00	20017.04
1761.00	19882.85
1762.00	19932.00
1763.00	19869.59
1764.00	19965.55
1765.00	19969.45
1766.00	19941.36
1767.00	19851.64
1768.00	19795.47
1769.00	19742.42
1770.00	19722.91
1771.00	19675.32
1772.00	19628.51
1773.00	19672.98
1774.00	19646.46
1775.00	19716.67
1776.00	19647.24
1777.00	19605.11
1778.00	19501.34
1779.00	19431.13
1780.00	19354.67
1781.00	19337.51
1782.00	19282.11
1783.00	19335.95
1784.00	19183.03
1785.00	19076.93
1786.00	18980.96
1787.00	18916.99
1788.00	18927.91
1789.00	18896.71
1790.00	18888.90
1791.00	18807.76
1792.00	18653.29
1793.00	18626.76
1794.00	18554.99
1795.00	18547.97
1796.00	18330.30
1797.00	18276.46
1798.00	18115.75
1799.00	18139.93
1800.00	18100.92
1801.00	18086.10
1802.00	18086.88
1803.00	17970.63
1804.00	18048.65
1805.00	17973.75
1806.00	18041.63
1807.00	17959.71
1808.00	17984.68
1809.00	17962.05
1810.00	17936.31
1811.00	17902.76
1812.00	17823.96
1813.00	17728.00
1814.00	17611.75
1815.00	17583.66
1816.00	17483.02
1817.00	17382.38
1818.00	17217.76
1819.00	17187.33
1820.00	17206.84
1821.00	17172.51
1822.00	17082.01
1823.00	17095.27
1824.00	17055.48
1825.00	17037.54
1826.00	17046.12
1827.00	17155.35
1828.00	17188.89
1829.00	17101.51
1830.00	16812.85
1831.00	16759.80
1832.00	16644.33
1833.00	16802.71
1834.00	16665.39
1835.00	16421.20
1836.00	16184.02
1837.00	16186.36
1838.00	16317.43
1839.00	16414.18
1840.00	16354.88
1841.00	16250.34
1842.00	16185.58
1843.00	16007.70
1844.00	15962.45
1845.00	15852.45
1846.00	15895.36
1847.00	15817.34
1848.00	15804.08
1849.00	15812.66
1850.00	15865.71
1851.00	15716.70
1852.00	15609.03
1853.00	15541.94
1854.00	15542.72
1855.00	15428.03
1856.00	15400.72
1857.00	15438.95
1858.00	15428.81
1859.00	15343.77
1860.00	15113.62
1861.00	15074.61
1862.00	15027.80
1863.00	15042.62
1864.00	15042.62
1865.00	14997.37
1866.00	15046.52
1867.00	14974.75
1868.00	14960.70
1869.00	14934.18
1870.00	14868.64
1871.00	14791.41
1872.00	14668.14
1873.00	14651.75
1874.00	14604.16
1875.00	14547.99
1876.00	14535.51
1877.00	14414.58
1878.00	14317.84
1879.00	14210.95
1880.00	14171.94
1881.00	14104.07
1882.00	14045.55
1883.00	13972.22
1884.00	13957.39
1885.00	13880.16
1886.00	13750.65
1887.00	13675.75
1888.00	13536.10
1889.00	13606.31
1890.00	13556.38
1891.00	13603.19
1892.00	13499.43
1893.00	13605.53
1894.00	13611.78
1895.00	13613.34
1896.00	13450.28
1897.00	13320.77
1898.00	13277.86
1899.00	13163.17
1900.00	13089.84
1901.00	12982.17
1902.00	12940.04
1903.00	12736.42
1904.00	12305.76
1905.00	11616.08
1906.00	10795.33
1907.00	9898.13
1908.00	9099.22
1909.00	8505.51
1910.00	8134.14
1911.00	7976.55
1912.00	8033.50
1913.00	8258.19
1914.00	8567.14
1915.00	8986.10
1916.00	9338.74
1917.00	9753.01
1918.00	9951.96
1919.00	10074.45
1920.00	10050.26
1921.00	9896.57
1922.00	9790.46
1923.00	9582.93
1924.00	9539.24
1925.00	9443.28
1926.00	9459.67
1927.00	9444.84
1928.00	9492.43
1929.00	9541.58
1930.00	9630.52
1931.00	9732.73
1932.00	9810.75
1933.00	9932.45
1934.00	9951.18
1935.00	9975.36
1936.00	9952.74
1937.00	10072.11
1938.00	10140.76
1939.00	10177.43
1940.00	10153.24
1941.00	10141.54
1942.00	10093.17
1943.00	10112.67
1944.00	10142.32
1945.00	10214.88
1946.00	10210.20
1947.00	10183.67
1948.00	10200.83
1949.00	10141.54
1950.00	10136.08
1951.00	10048.70
1952.00	10025.29
1953.00	9944.94
1954.00	9841.95
1955.00	9758.47
1956.00	9662.51
1957.00	9664.07
1958.00	9601.66
1959.00	9582.15
1960.00	9456.54
1961.00	9387.89
1962.00	9253.70
1963.00	9198.31
1964.00	9237.31
1965.00	9248.24
1966.00	9231.85
1967.00	9189.72
1968.00	9190.50
1969.00	9206.89
1970.00	9188.16
1971.00	9171.00
1972.00	9104.68
1973.00	9088.30
1974.00	9071.14
1975.00	9147.59
1976.00	9125.75
1977.00	9061.77
1978.00	9051.63
1979.00	9080.50
1980.00	9164.76
1981.00	9195.18
1982.00	9230.29
1983.00	9224.83
1984.00	9151.49
1985.00	9083.62
1986.00	9012.62
1987.00	8941.63
1988.00	8779.35
1989.00	8688.07
1990.00	8609.27
1991.00	8559.34
1992.00	8528.91
1993.00	8432.17
1994.00	8372.10
1995.00	8273.79
1996.00	8183.29
1997.00	8088.89
1998.00	8011.65
1999.00	8021.02
2000.00	8032.72
2001.00	8098.25
2002.00	8148.97
2003.00	8134.14
2004.00	8056.90
2005.00	7874.34
2006.00	7773.70
2007.00	7704.26
2008.00	7725.33
2009.00	7732.35
2010.00	7690.22
2011.00	7634.83
2012.00	7648.87
2013.00	7682.42
2014.00	7694.90
2015.00	7586.46
2016.00	7464.75
2017.00	7352.40
2018.00	7314.17
2019.00	7305.59
2020.00	7300.91
2021.00	7240.84
2022.00	7140.19
2023.00	7051.25
2024.00	7020.83
2025.00	7026.29
2026.00	7108.99
2027.00	7098.06
2028.00	7096.50
2029.00	7061.40
2030.00	7099.62
2031.00	7187.00
2032.00	7161.26
2033.00	7158.92
2034.00	7065.30
2035.00	6976.36
2036.00	6876.49
2037.00	6841.39
2038.00	6896.78
2039.00	6927.99
2040.00	6924.87
2041.00	6975.58
2042.00	6904.58
2043.00	6854.65
2044.00	6725.14
2045.00	6713.44
2046.00	6707.20
2047.00	6724.36
>>>>>End Processed Spectral Data<<<<<
