SpectraSuite Data File
++++++++++++++++++++++++++++++++++++
Date: Thu Nov 16 13:32:53 EST 2017
User: cheriyan
Dark Spectrum Present: No
Reference Spectrum Present: No
Number of Sampled Component Spectra: 1
Spectrometers: USB2+H05261
Integration Time (usec): 90000 (USB2+H05261)
Spectra Averaged: 1 (USB2+H05261)
Boxcar Smoothing: 1 (USB2+H05261)
Correct for Electrical Dark: No (USB2+H05261)
Strobe/Lamp Enabled: No (USB2+H05261)
Correct for Detector Non-linearity: No (USB2+H05261)
Correct for Stray Light: No (USB2+H05261)
Number of Pixels in Processed Spectrum: 2048
>>>>>Begin Processed Spectral Data<<<<<
0.00	374.49
1.00	374.49
2.00	357.32
3.00	319.87
4.00	303.49
5.00	295.69
6.00	298.81
7.00	272.28
8.00	245.76
9.00	248.88
10.00	255.12
11.00	263.70
12.00	268.38
13.00	255.90
14.00	268.38
15.00	260.58
16.00	261.36
17.00	277.74
18.00	263.70
19.00	304.27
20.00	298.81
21.00	310.51
22.00	314.41
23.00	750.53
24.00	2381.89
25.00	4138.85
26.00	5527.57
27.00	5697.64
28.00	5639.91
29.00	5410.54
30.00	5185.85
31.00	5093.01
32.00	5146.06
33.00	5249.04
34.00	5204.57
35.00	5039.95
36.00	4819.16
37.00	4621.00
38.00	4610.86
39.00	4710.72
40.00	4850.37
41.00	4849.59
42.00	4760.65
43.00	4722.42
44.00	4829.31
45.00	5057.12
46.00	5355.15
47.00	5575.94
48.00	5710.13
49.00	5716.37
50.00	5744.45
51.00	5738.99
52.00	5769.42
53.00	5767.08
54.00	5870.06
55.00	6104.12
56.00	6402.15
57.00	6688.47
58.00	6913.16
59.00	7111.33
60.00	7253.32
61.00	7238.50
62.00	7105.09
63.00	6830.46
64.00	6594.07
65.00	6331.93
66.00	6154.05
67.00	5952.76
68.00	5871.62
69.00	5912.97
70.00	6098.66
71.00	6379.52
72.00	6627.62
73.00	6825.78
74.00	6893.66
75.00	6815.64
76.00	6680.67
77.00	6415.41
78.00	6105.68
79.00	5799.07
80.00	5505.72
81.00	5303.65
82.00	5110.95
83.00	4941.65
84.00	4821.50
85.00	4661.57
86.00	4572.63
87.00	4517.23
88.00	4516.45
89.00	4607.73
90.00	4805.12
91.00	5135.92
92.00	5553.31
93.00	6006.59
94.00	6395.12
95.00	6604.21
96.00	6597.19
97.00	6520.73
98.00	6377.96
99.00	6189.94
100.00	6060.43
101.00	6172.77
102.00	6399.02
103.00	6581.59
104.00	6605.77
105.00	6558.96
106.00	6459.10
107.00	6470.80
108.00	6554.28
109.00	6668.97
110.00	6702.51
111.00	6653.36
112.00	6662.73
113.00	6567.54
114.00	6593.29
115.00	6697.05
116.00	6955.29
117.00	7386.73
118.00	7726.11
119.00	8063.93
120.00	8282.38
121.00	8411.11
122.00	8437.63
123.00	8388.48
124.00	8478.20
125.00	8747.36
126.00	9070.36
127.00	9324.69
128.00	9474.49
129.00	9495.55
130.00	9358.24
131.00	9081.28
132.00	8663.10
133.00	8248.83
134.00	7663.69
135.00	7058.28
136.00	6263.27
137.00	5515.86
138.00	4911.22
139.00	4701.36
140.00	4882.36
141.00	5426.14
142.00	6093.97
143.00	6902.24
144.00	7629.37
145.00	8342.45
146.00	8923.68
147.00	9364.48
148.00	9729.61
149.00	9943.38
150.00	9991.75
151.00	9789.68
152.00	9288.03
153.00	8528.91
154.00	7607.52
155.00	6746.98
156.00	6030.78
157.00	5756.94
158.00	6045.60
159.00	6853.09
160.00	7939.10
161.00	9068.80
162.00	10131.40
163.00	10997.40
164.00	11655.87
165.00	12138.02
166.00	12588.96
167.00	12894.79
168.00	13223.25
169.00	13419.85
170.00	13611.78
171.00	13626.60
172.00	13677.31
173.00	13781.85
174.00	13840.37
175.00	13933.99
176.00	14005.77
177.00	14168.04
178.00	14448.13
179.00	14743.03
180.00	15016.10
181.00	15125.32
182.00	15210.36
183.00	15494.35
184.00	15591.87
185.00	15664.43
186.00	15516.19
187.00	15440.51
188.00	15214.26
189.00	14921.70
190.00	14842.90
191.00	15009.08
192.00	15319.59
193.00	15591.09
194.00	15592.65
195.00	15504.49
196.00	15186.18
197.00	15015.32
198.00	15076.95
199.00	15241.57
200.00	15382.00
201.00	15381.22
202.00	15360.94
203.00	15311.78
204.00	15157.31
205.00	15037.16
206.00	14912.33
207.00	14867.08
208.00	15009.86
209.00	15171.35
210.00	15306.32
211.00	15247.03
212.00	15172.13
213.00	15349.23
214.00	15572.36
215.00	15912.52
216.00	16194.95
217.00	16588.16
218.00	16908.03
219.00	17227.12
220.00	17325.43
221.00	17257.55
222.00	16908.03
223.00	16301.83
224.00	15729.96
225.00	15166.67
226.00	15041.84
227.00	15289.94
228.00	15673.01
229.00	16159.06
230.00	16641.21
231.00	17273.93
232.00	17827.08
233.00	18210.93
234.00	18417.68
235.00	18483.21
236.00	18540.16
237.00	18508.18
238.00	18360.72
239.00	18138.37
240.00	17972.19
241.00	17965.95
242.00	18134.47
243.00	18209.37
244.00	18548.75
245.00	18690.74
246.00	18918.55
247.00	18857.70
248.00	18756.27
249.00	18841.31
250.00	18887.34
251.00	19044.16
252.00	19114.38
253.00	19058.20
254.00	19106.57
255.00	19229.84
256.00	19605.89
257.00	19976.47
258.00	20301.81
259.00	20397.77
260.00	20396.21
261.00	20161.37
262.00	19861.79
263.00	19511.49
264.00	19310.20
265.00	19262.61
266.00	19232.18
267.00	19357.01
268.00	19620.71
269.00	19777.53
270.00	19768.16
271.00	19779.87
272.00	20018.60
273.00	20262.02
274.00	20317.41
275.00	20117.68
276.00	19934.34
277.00	19573.90
278.00	19424.89
279.00	19452.19
280.00	20121.59
281.00	20832.33
282.00	21522.01
283.00	21710.03
284.00	21827.84
285.00	21643.71
286.00	21609.39
287.00	21262.99
288.00	21145.96
289.00	20623.24
290.00	20098.96
291.00	19387.44
292.00	19235.30
293.00	19481.84
294.00	20145.77
295.00	20397.77
296.00	20597.49
297.00	20360.32
298.00	20480.47
299.00	20584.23
300.00	20842.47
301.00	20632.60
302.00	20485.15
303.00	20298.69
304.00	20234.71
305.00	20081.80
306.00	19925.76
307.00	19797.81
308.00	19684.69
309.00	19609.01
310.00	19894.55
311.00	20247.19
312.00	20357.20
313.00	20206.62
314.00	19617.59
315.00	19084.73
316.00	18742.23
317.00	18780.46
318.00	19142.46
319.00	19300.06
320.00	19658.94
321.00	19784.55
322.00	19882.85
323.00	19629.29
324.00	19323.46
325.00	19121.40
326.00	19008.27
327.00	18881.10
328.00	18338.88
329.00	17592.25
330.00	16853.42
331.00	15964.01
332.00	15266.53
333.00	14602.60
334.00	14540.19
335.00	14715.73
336.00	15335.19
337.00	16526.52
338.00	18176.60
339.00	20166.06
340.00	21570.38
341.00	22224.95
342.00	21720.17
343.00	21050.78
344.00	20540.54
345.00	20750.41
346.00	21335.54
347.00	22000.26
348.00	22448.08
349.00	22295.16
350.00	21585.98
351.00	20582.67
352.00	19833.70
353.00	19739.30
354.00	20163.72
355.00	20869.78
356.00	21520.45
357.00	21941.74
358.00	22026.00
359.00	22211.68
360.00	22395.81
361.00	22993.42
362.00	23289.11
363.00	23771.26
364.00	23975.67
365.00	24038.08
366.00	24003.75
367.00	23902.33
368.00	23747.08
369.00	23249.32
370.00	22946.61
371.00	22813.20
372.00	22552.62
373.00	22125.86
374.00	21529.81
375.00	21170.93
376.00	20893.18
377.00	20979.78
378.00	21425.26
379.00	22092.32
380.00	22672.77
381.00	23235.28
382.00	23655.01
383.00	24122.34
384.00	24170.71
385.00	23824.31
386.00	23556.71
387.00	23573.10
388.00	24099.72
389.00	24744.92
390.00	25330.84
391.00	25841.07
392.00	26118.82
393.00	26519.05
394.00	26747.64
395.00	26943.47
396.00	26996.52
397.00	27251.64
398.00	27569.95
399.00	27825.07
400.00	27573.85
401.00	27379.59
402.00	27289.09
403.00	27683.08
404.00	27892.94
405.00	28142.60
406.00	28274.45
407.00	28229.20
408.00	27899.97
409.00	27774.36
410.00	27832.87
411.00	28095.79
412.00	27703.36
413.00	27155.68
414.00	26382.52
415.00	25915.19
416.00	25856.68
417.00	25972.92
418.00	26377.84
419.00	26573.66
420.00	26973.11
421.00	27491.93
422.00	27988.13
423.00	28472.62
424.00	28687.17
425.00	28897.03
426.00	28775.33
427.00	28478.08
428.00	28313.46
429.00	28350.91
430.00	28475.74
431.00	28377.44
432.00	28274.45
433.00	28280.69
434.00	28417.22
435.00	28588.86
436.00	28803.41
437.00	29117.04
438.00	29437.70
439.00	29748.21
440.00	30277.17
441.00	30689.88
442.00	30934.08
443.00	30753.08
444.00	30572.86
445.00	30374.69
446.00	30170.29
447.00	30009.57
448.00	29894.10
449.00	29589.83
450.00	29410.39
451.00	29099.10
452.00	28726.96
453.00	28212.82
454.00	27775.92
455.00	27632.36
456.00	27838.33
457.00	28410.20
458.00	29078.82
459.00	29322.23
460.00	29534.44
461.00	29505.57
462.00	29642.10
463.00	29513.38
464.00	29463.44
465.00	29201.30
466.00	29098.32
467.00	29323.01
468.00	29617.92
469.00	30086.03
470.00	30420.72
471.00	30913.80
472.00	31214.94
473.00	31244.59
474.00	31198.56
475.00	31021.46
476.00	31225.09
477.00	31576.95
478.00	31827.38
479.00	31870.29
480.00	31330.41
481.00	30959.05
482.00	30399.66
483.00	30156.24
484.00	30322.42
485.00	30620.45
486.00	30987.13
487.00	30945.78
488.00	31016.78
489.00	31099.48
490.00	30859.96
491.00	30665.70
492.00	30604.84
493.00	30876.35
494.00	31065.15
495.00	31189.98
496.00	31468.50
497.00	31834.41
498.00	32095.77
499.00	32092.65
500.00	31906.18
501.00	31967.82
502.00	32179.25
503.00	32457.77
504.00	32626.29
505.00	32609.12
506.00	32744.87
507.00	32839.28
508.00	32940.70
509.00	32808.85
510.00	32573.24
511.00	32390.67
512.00	32301.73
513.00	32202.65
514.00	32310.32
515.00	32128.53
516.00	31971.72
517.00	31502.05
518.00	31289.06
519.00	31074.51
520.00	31243.03
521.00	31488.79
522.00	31598.01
523.00	31859.37
524.00	32098.89
525.00	32696.50
526.00	32333.72
527.00	31938.95
528.00	31055.79
529.00	30756.98
530.00	30594.70
531.00	30693.01
532.00	31014.44
533.00	31300.76
534.00	31485.67
535.00	31621.42
536.00	31423.25
537.00	31282.04
538.00	31229.77
539.00	31418.57
540.00	31812.56
541.00	31831.29
542.00	31852.35
543.00	31825.82
544.00	31927.25
545.00	31786.04
546.00	31578.51
547.00	31246.15
548.00	31122.10
549.00	31013.66
550.00	30984.79
551.00	31006.64
552.00	31102.60
553.00	31400.63
554.00	31735.32
555.00	32162.08
556.00	32510.82
557.00	33079.57
558.00	33550.80
559.00	34125.79
560.00	34161.68
561.00	34167.92
562.00	33501.65
563.00	33152.13
564.00	32696.50
565.00	33042.90
566.00	33383.06
567.00	33493.07
568.00	33490.73
569.00	33514.13
570.00	34139.83
571.00	34519.00
572.00	34821.71
573.00	34678.16
574.00	34671.92
575.00	34700.00
576.00	35015.19
577.00	34888.03
578.00	34950.44
579.00	34677.38
580.00	34582.98
581.00	34317.71
582.00	34354.38
583.00	34426.94
584.00	34788.94
585.00	35107.26
586.00	35780.55
587.00	35941.27
588.00	36208.87
589.00	36506.12
590.00	37057.70
591.00	37525.03
592.00	37884.69
593.00	38093.00
594.00	37997.04
595.00	37731.00
596.00	37624.11
597.00	37982.99
598.00	38543.94
599.00	39188.37
600.00	39747.76
601.00	39874.15
602.00	39941.24
603.00	39738.40
604.00	39853.08
605.00	40310.27
606.00	40389.06
607.00	40810.36
608.00	40757.31
609.00	41277.69
610.00	41496.92
611.00	41567.91
612.00	41821.47
613.00	42104.68
614.00	42485.40
615.00	42394.90
616.00	42267.73
617.00	42353.55
618.00	42590.73
619.00	42814.64
620.00	42894.22
621.00	43052.59
622.00	43248.42
623.00	43622.12
624.00	43558.93
625.00	43356.08
626.00	43114.23
627.00	43331.12
628.00	43643.19
629.00	43956.04
630.00	44272.79
631.00	43984.13
632.00	43223.45
633.00	42285.68
634.00	41201.23
635.00	39586.26
636.00	37826.18
637.00	37040.54
638.00	37521.13
639.00	38583.73
640.00	39668.18
641.00	40754.19
642.00	41705.23
643.00	42692.93
644.00	43580.78
645.00	44357.83
646.00	45103.68
647.00	45686.48
648.00	46380.06
649.00	46682.76
650.00	46539.99
651.00	46241.96
652.00	45924.43
653.00	46012.59
654.00	46402.68
655.00	47388.05
656.00	48492.00
657.00	49390.76
658.00	49889.30
659.00	50221.66
660.00	50389.39
661.00	50202.15
662.00	49972.78
663.00	49766.81
664.00	49861.99
665.00	49805.04
666.00	49819.08
667.00	49613.90
668.00	49169.19
669.00	48462.35
670.00	47889.70
671.00	48017.65
672.00	48694.07
673.00	49730.92
674.00	50663.24
675.00	51282.70
676.00	51519.09
677.00	51447.32
678.00	51236.67
679.00	50972.97
680.00	51008.08
681.00	51314.69
682.00	52044.15
683.00	52567.65
684.00	53135.62
685.00	53450.81
686.00	53696.57
687.00	53659.12
688.00	53336.13
689.00	52958.52
690.00	52635.53
691.00	52536.44
692.00	52604.32
693.00	52987.39
694.00	53481.24
695.00	53968.85
696.00	53979.00
697.00	53951.69
698.00	54013.32
699.00	54131.91
700.00	54319.93
701.00	54480.65
702.00	54392.49
703.00	54003.96
704.00	53251.87
705.00	52879.72
706.00	52825.11
707.00	53004.55
708.00	53427.41
709.00	53827.64
710.00	54313.69
711.00	54637.47
712.00	54809.10
713.00	54890.24
714.00	54624.98
715.00	54262.98
716.00	53775.37
717.00	53514.01
718.00	53168.39
719.00	53060.72
720.00	52987.39
721.00	53024.06
722.00	52922.63
723.00	52911.71
724.00	52892.99
725.00	52836.81
726.00	52816.53
727.00	53125.48
728.00	53459.40
729.00	53737.92
730.00	53879.91
731.00	54193.54
732.00	54370.64
733.00	54495.47
734.00	54262.98
735.00	54062.47
736.00	53499.19
737.00	53067.75
738.00	52788.44
739.00	53055.26
740.00	53599.05
741.00	54096.02
742.00	54262.98
743.00	54251.28
744.00	54358.16
745.00	54780.24
746.00	55235.08
747.00	55721.13
748.00	55973.91
749.00	56217.33
750.00	56097.18
751.00	55853.76
752.00	55663.40
753.00	55377.08
754.00	55229.62
755.00	55059.54
756.00	55160.19
757.00	55017.41
758.00	54807.54
759.00	54461.93
760.00	54178.72
761.00	53993.04
762.00	54146.73
763.00	54511.08
764.00	55005.71
765.00	55430.13
766.00	55862.35
767.00	56165.06
768.00	56098.74
769.00	56016.04
770.00	55795.25
771.00	55650.14
772.00	55541.69
773.00	55451.97
774.00	55514.39
775.00	55566.66
776.00	55504.24
777.00	55569.78
778.00	55646.24
779.00	55958.31
780.00	56226.69
781.00	56566.85
782.00	56807.14
783.00	56836.01
784.00	56532.52
785.00	56116.68
786.00	55735.18
787.00	55483.96
788.00	55388.78
789.00	55490.20
790.00	55535.45
791.00	55592.40
792.00	55537.01
793.00	55442.61
794.00	55265.51
795.00	55001.03
796.00	54989.33
797.00	54939.39
798.00	55086.07
799.00	55065.00
800.00	55177.35
801.00	55235.08
802.00	55445.73
803.00	55619.71
804.00	55715.67
805.00	55903.70
806.00	55925.54
807.00	55673.54
808.00	54947.98
809.00	53885.37
810.00	52686.24
811.00	51285.82
812.00	50146.76
813.00	49524.96
814.00	50073.42
815.00	51420.01
816.00	52942.14
817.00	53742.60
818.00	53737.92
819.00	53222.22
820.00	52467.01
821.00	52111.25
822.00	52191.61
823.00	52960.08
824.00	53613.09
825.00	54203.69
826.00	54452.56
827.00	54888.68
828.00	55280.33
829.00	55632.19
830.00	55770.28
831.00	55735.96
832.00	55623.61
833.00	55373.95
834.00	55266.29
835.00	55348.21
836.00	55645.46
837.00	55934.12
838.00	56094.84
839.00	56208.75
840.00	56342.16
841.00	56459.96
842.00	56465.42
843.00	56278.96
844.00	55854.54
845.00	55473.82
846.00	55209.34
847.00	55103.23
848.00	55128.98
849.00	55328.70
850.00	55717.23
851.00	56121.37
852.00	56527.84
853.00	56853.95
854.00	57056.02
855.00	57109.85
856.00	57153.54
857.00	57005.31
858.00	56866.44
859.00	56596.49
860.00	56506.77
861.00	56406.91
862.00	56560.61
863.00	56645.65
864.00	56474.79
865.00	55915.40
866.00	55077.49
867.00	54202.13
868.00	53324.43
869.00	52709.64
870.00	52270.40
871.00	52494.32
872.00	53006.89
873.00	53933.74
874.00	54625.76
875.00	55196.07
876.00	55490.20
877.00	55632.97
878.00	55790.57
879.00	56054.27
880.00	56344.50
881.00	56776.72
882.00	57055.24
883.00	57228.44
884.00	57046.66
885.00	56591.03
886.00	56127.61
887.00	55775.75
888.00	55742.20
889.00	55792.13
890.00	56023.84
891.00	56257.12
892.00	56655.79
893.00	56839.13
894.00	56990.48
895.00	56907.79
896.00	56828.21
897.00	56627.70
898.00	56493.51
899.00	56266.48
900.00	56047.25
901.00	55626.73
902.00	55164.87
903.00	54507.18
904.00	54042.97
905.00	53887.71
906.00	54202.13
907.00	54783.36
908.00	55258.49
909.00	55714.89
910.00	55751.56
911.00	55621.27
912.00	55280.33
913.00	55157.84
914.00	55107.91
915.00	55263.17
916.00	55435.59
917.00	55677.44
918.00	55870.93
919.00	55977.03
920.00	56257.90
921.00	56525.50
922.00	56696.36
923.00	56608.98
924.00	56315.63
925.00	55909.94
926.00	55571.34
927.00	55100.11
928.00	54617.96
929.00	54330.86
930.00	54255.96
931.00	54537.60
932.00	54889.46
933.00	55253.81
934.00	55429.35
935.00	55478.50
936.00	55542.47
937.00	55622.05
938.00	55469.14
939.00	55421.55
940.00	55281.89
941.00	55136.78
942.00	54855.92
943.00	54649.17
944.00	54518.88
945.00	54323.05
946.00	54225.53
947.00	53965.73
948.00	53789.41
949.00	53446.91
950.00	53315.84
951.00	53100.51
952.00	52983.49
953.00	52982.71
954.00	53322.08
955.00	53748.84
956.00	54167.80
957.00	54276.24
958.00	54512.64
959.00	54490.01
960.00	54458.02
961.00	54159.22
962.00	54099.92
963.00	54089.00
964.00	54143.61
965.00	54010.98
966.00	54007.86
967.00	54157.66
968.00	54354.26
969.00	54578.17
970.00	54836.41
971.00	55102.45
972.00	55132.10
973.00	54880.88
974.00	54602.36
975.00	54532.92
976.00	54469.73
977.00	54463.49
978.00	54307.45
979.00	54319.15
980.00	54236.45
981.00	54316.03
982.00	54251.28
983.00	54282.48
984.00	54202.13
985.00	54191.98
986.00	54149.07
987.00	54096.80
988.00	54188.08
989.00	54005.52
990.00	53916.58
991.00	53555.36
992.00	53432.87
993.00	53163.71
994.00	53123.92
995.00	53317.40
996.00	53601.39
997.00	53956.37
998.00	54064.03
999.00	54248.94
1000.00	54265.32
1001.00	54257.52
1002.00	54109.28
1003.00	53916.58
1004.00	53958.71
1005.00	54010.20
1006.00	54090.56
1007.00	53960.27
1008.00	53896.30
1009.00	53607.63
1010.00	53537.41
1011.00	53381.38
1012.00	53556.14
1013.00	53421.95
1014.00	53462.52
1015.00	53428.19
1016.00	53645.08
1017.00	53912.68
1018.00	54167.80
1019.00	54212.27
1020.00	54009.42
1021.00	53718.42
1022.00	53386.06
1023.00	53113.78
1024.00	52885.96
1025.00	52891.43
1026.00	53037.32
1027.00	53272.93
1028.00	53457.06
1029.00	53420.39
1030.00	53446.13
1031.00	53600.61
1032.00	53756.64
1033.00	53840.12
1034.00	53792.53
1035.00	53812.04
1036.00	53866.65
1037.00	53795.65
1038.00	53698.91
1039.00	53472.66
1040.00	53345.49
1041.00	53290.10
1042.00	53034.98
1043.00	52953.84
1044.00	52739.29
1045.00	52800.15
1046.00	52632.41
1047.00	52479.49
1048.00	52220.47
1049.00	52064.44
1050.00	52120.61
1051.00	52284.45
1052.00	52499.00
1053.00	52584.04
1054.00	52615.24
1055.00	52598.08
1056.00	52349.98
1057.00	51998.12
1058.00	51402.85
1059.00	50871.54
1060.00	50677.28
1061.00	50629.69
1062.00	50775.58
1063.00	50823.17
1064.00	50827.07
1065.00	50880.13
1066.00	50933.96
1067.00	51113.40
1068.00	51214.82
1069.00	51500.37
1070.00	51787.47
1071.00	52217.35
1072.00	52445.16
1073.00	52658.93
1074.00	52477.93
1075.00	52142.45
1076.00	51611.15
1077.00	51278.80
1078.00	51057.23
1079.00	51005.73
1080.00	51150.07
1081.00	51228.87
1082.00	51422.35
1083.00	51403.63
1084.00	51498.03
1085.00	51569.80
1086.00	51682.15
1087.00	51679.03
1088.00	51473.06
1089.00	51223.40
1090.00	51068.15
1091.00	50994.81
1092.00	50962.04
1093.00	50823.95
1094.00	50788.84
1095.00	50889.49
1096.00	51026.80
1097.00	50979.99
1098.00	50742.03
1099.00	50388.61
1100.00	50048.46
1101.00	49677.87
1102.00	49301.82
1103.00	49230.05
1104.00	49308.85
1105.00	49506.23
1106.00	49584.25
1107.00	49710.64
1108.00	50027.39
1109.00	50249.74
1110.00	50519.68
1111.00	50493.16
1112.00	50499.40
1113.00	50330.88
1114.00	50189.67
1115.00	49913.48
1116.00	49535.88
1117.00	49101.32
1118.00	48772.86
1119.00	48612.15
1120.00	48483.42
1121.00	48375.75
1122.00	48396.04
1123.00	48662.86
1124.00	48871.95
1125.00	48808.75
1126.00	48576.26
1127.00	48487.32
1128.00	48360.93
1129.00	48194.75
1130.00	47734.45
1131.00	47386.49
1132.00	47046.33
1133.00	46683.55
1134.00	46341.83
1135.00	46260.69
1136.00	46538.43
1137.00	46923.84
1138.00	47196.12
1139.00	47538.62
1140.00	47878.00
1141.00	48218.16
1142.00	48339.08
1143.00	48478.74
1144.00	48498.24
1145.00	48445.19
1146.00	48308.66
1147.00	48108.15
1148.00	48006.73
1149.00	47860.05
1150.00	47767.21
1151.00	47728.20
1152.00	47773.45
1153.00	47745.37
1154.00	47446.56
1155.00	47169.60
1156.00	46956.61
1157.00	46866.11
1158.00	46570.42
1159.00	46326.22
1160.00	46112.45
1161.00	45942.38
1162.00	45922.09
1163.00	45915.07
1164.00	45957.98
1165.00	45883.86
1166.00	45693.50
1167.00	45871.38
1168.00	45996.21
1169.00	46369.91
1170.00	46392.54
1171.00	46226.36
1172.00	45997.77
1173.00	45704.42
1174.00	45716.90
1175.00	45631.86
1176.00	45504.70
1177.00	45247.24
1178.00	44798.63
1179.00	44499.05
1180.00	44286.84
1181.00	44325.07
1182.00	44510.75
1183.00	44734.66
1184.00	44915.66
1185.00	45059.21
1186.00	45116.17
1187.00	45209.79
1188.00	45464.91
1189.00	45497.67
1190.00	45634.20
1191.00	45520.30
1192.00	45431.36
1193.00	45335.40
1194.00	45322.13
1195.00	45411.85
1196.00	45457.10
1197.00	45431.36
1198.00	45475.83
1199.00	45692.72
1200.00	45614.70
1201.00	45736.41
1202.00	45744.99
1203.00	45990.75
1204.00	46053.94
1205.00	46119.48
1206.00	46181.89
1207.00	46275.51
1208.00	46156.92
1209.00	46020.39
1210.00	45890.88
1211.00	45794.14
1212.00	45824.57
1213.00	45812.87
1214.00	45855.00
1215.00	45769.18
1216.00	45540.58
1217.00	45407.95
1218.00	45227.73
1219.00	45238.65
1220.00	45116.95
1221.00	44923.46
1222.00	44739.34
1223.00	44371.88
1224.00	43973.20
1225.00	43574.53
1226.00	43316.29
1227.00	43370.13
1228.00	43362.33
1229.00	43502.76
1230.00	43654.11
1231.00	43898.31
1232.00	44080.09
1233.00	44014.55
1234.00	43872.56
1235.00	43837.45
1236.00	43889.73
1237.00	43885.04
1238.00	43711.06
1239.00	43547.23
1240.00	43143.09
1241.00	42637.54
1242.00	41833.96
1243.00	40937.53
1244.00	39843.72
1245.00	38757.71
1246.00	38086.76
1247.00	37439.21
1248.00	37169.27
1249.00	37038.20
1250.00	37432.97
1251.00	38099.24
1252.00	38872.40
1253.00	39736.84
1254.00	40510.77
1255.00	41186.41
1256.00	41549.97
1257.00	41884.67
1258.00	41934.60
1259.00	41881.55
1260.00	41598.34
1261.00	41296.41
1262.00	41212.93
1263.00	41190.31
1264.00	41146.62
1265.00	40921.15
1266.00	40659.01
1267.00	40848.59
1268.00	41308.90
1269.00	41659.20
1270.00	41374.43
1271.00	41042.07
1272.00	40946.11
1273.00	41163.00
1274.00	41411.10
1275.00	41311.24
1276.00	41262.08
1277.00	40825.96
1278.00	40612.20
1279.00	40242.39
1280.00	40084.79
1281.00	39855.42
1282.00	39747.76
1283.00	39612.79
1284.00	39732.15
1285.00	39863.22
1286.00	40090.26
1287.00	40263.46
1288.00	40339.13
1289.00	40601.27
1290.00	40731.56
1291.00	40972.64
1292.00	40936.75
1293.00	40829.09
1294.00	40615.32
1295.00	40527.16
1296.00	40574.75
1297.00	40538.08
1298.00	40577.09
1299.00	40392.19
1300.00	40204.16
1301.00	40052.81
1302.00	39892.09
1303.00	40002.10
1304.00	39927.98
1305.00	39911.60
1306.00	39906.13
1307.00	39832.02
1308.00	40104.30
1309.00	40107.42
1310.00	40228.35
1311.00	40069.19
1312.00	40112.10
1313.00	39948.26
1314.00	39816.41
1315.00	39631.51
1316.00	39642.43
1317.00	39601.08
1318.00	39560.51
1319.00	39433.35
1320.00	39341.28
1321.00	39171.99
1322.00	39174.33
1323.00	39098.65
1324.00	39154.04
1325.00	39093.97
1326.00	38994.89
1327.00	38865.38
1328.00	38583.73
1329.00	38554.08
1330.00	38529.90
1331.00	38624.30
1332.00	38612.60
1333.00	38618.84
1334.00	38908.29
1335.00	39147.80
1336.00	39420.08
1337.00	39553.49
1338.00	39752.44
1339.00	39728.25
1340.00	39526.19
1341.00	39233.62
1342.00	39086.17
1343.00	39085.39
1344.00	39162.62
1345.00	39247.66
1346.00	39243.76
1347.00	39207.87
1348.00	39105.67
1349.00	38805.30
1350.00	38700.76
1351.00	38571.25
1352.00	38677.35
1353.00	38678.91
1354.00	38645.37
1355.00	38504.15
1356.00	38419.89
1357.00	38353.58
1358.00	38425.36
1359.00	38439.40
1360.00	38543.94
1361.00	38447.98
1362.00	38355.14
1363.00	38206.12
1364.00	37966.61
1365.00	37914.34
1366.00	37768.44
1367.00	37688.09
1368.00	37616.31
1369.00	37698.23
1370.00	37670.14
1371.00	37428.29
1372.00	37262.89
1373.00	37333.10
1374.00	37361.19
1375.00	37294.10
1376.00	37187.99
1377.00	37104.51
1378.00	36861.88
1379.00	36687.12
1380.00	36361.78
1381.00	36307.95
1382.00	36249.44
1383.00	36310.29
1384.00	36340.72
1385.00	36383.63
1386.00	36524.06
1387.00	36601.30
1388.00	36683.22
1389.00	36665.27
1390.00	36637.19
1391.00	36339.16
1392.00	36063.75
1393.00	35757.92
1394.00	35700.19
1395.00	35659.62
1396.00	35847.64
1397.00	35833.60
1398.00	35947.51
1399.00	35849.99
1400.00	35954.53
1401.00	35565.22
1402.00	35202.44
1403.00	34707.80
1404.00	34593.12
1405.00	34552.55
1406.00	34570.49
1407.00	34714.05
1408.00	34762.42
1409.00	35023.00
1410.00	35179.03
1411.00	35356.91
1412.00	35258.61
1413.00	35118.96
1414.00	34969.94
1415.00	34976.19
1416.00	34749.15
1417.00	34387.93
1418.00	33897.20
1419.00	33492.29
1420.00	33205.96
1421.00	33076.45
1422.00	33053.05
1423.00	33106.10
1424.00	33223.90
1425.00	33414.27
1426.00	33505.55
1427.00	33726.34
1428.00	33874.57
1429.00	34081.32
1430.00	34203.81
1431.00	34310.69
1432.00	34508.08
1433.00	34490.91
1434.00	34526.80
1435.00	34434.74
1436.00	34292.75
1437.00	33954.93
1438.00	33679.53
1439.00	33532.86
1440.00	33550.02
1441.00	33519.59
1442.00	33641.30
1443.00	33721.66
1444.00	33731.80
1445.00	33681.87
1446.00	33815.28
1447.00	33935.43
1448.00	33908.12
1449.00	33679.53
1450.00	33715.42
1451.00	33756.77
1452.00	33837.90
1453.00	33545.34
1454.00	33266.81
1455.00	32968.01
1456.00	32780.76
1457.00	32671.54
1458.00	32610.68
1459.00	32607.56
1460.00	32609.90
1461.00	32526.42
1462.00	32343.08
1463.00	32063.00
1464.00	31988.10
1465.00	31926.47
1466.00	32009.95
1467.00	31821.14
1468.00	31793.84
1469.00	31771.99
1470.00	31807.88
1471.00	31806.32
1472.00	31570.71
1473.00	31409.21
1474.00	31166.57
1475.00	31033.16
1476.00	30866.98
1477.00	30927.84
1478.00	30764.00
1479.00	30730.45
1480.00	30448.81
1481.00	30370.01
1482.00	30286.53
1483.00	30178.87
1484.00	30313.84
1485.00	30402.00
1486.00	30639.17
1487.00	30702.37
1488.00	30682.86
1489.00	30653.22
1490.00	30622.79
1491.00	30567.40
1492.00	30268.59
1493.00	29936.23
1494.00	29453.30
1495.00	28904.84
1496.00	28288.49
1497.00	27966.28
1498.00	27944.44
1499.00	28151.96
1500.00	28364.17
1501.00	28630.99
1502.00	28769.86
1503.00	28869.73
1504.00	29010.94
1505.00	29055.41
1506.00	28904.84
1507.00	28635.67
1508.00	28438.29
1509.00	28243.24
1510.00	28162.89
1511.00	27978.76
1512.00	28083.31
1513.00	28139.48
1514.00	28344.67
1515.00	28475.74
1516.00	28522.55
1517.00	28542.83
1518.00	28461.69
1519.00	28386.80
1520.00	28187.07
1521.00	27922.59
1522.00	27680.74
1523.00	27610.52
1524.00	27783.72
1525.00	28022.45
1526.00	28254.95
1527.00	28385.24
1528.00	28515.53
1529.00	28444.53
1530.00	28372.75
1531.00	28323.60
1532.00	28431.27
1533.00	28450.77
1534.00	28258.85
1535.00	28050.54
1536.00	27778.26
1537.00	27794.64
1538.00	27786.84
1539.00	27885.92
1540.00	27832.87
1541.00	27902.31
1542.00	28024.01
1543.00	28163.67
1544.00	28215.16
1545.00	28261.97
1546.00	28226.08
1547.00	28241.68
1548.00	28098.13
1549.00	27970.18
1550.00	27770.46
1551.00	27623.78
1552.00	27498.95
1553.00	27466.19
1554.00	27481.01
1555.00	27678.40
1556.00	27775.14
1557.00	27793.08
1558.00	27821.17
1559.00	27868.76
1560.00	28099.69
1561.00	28127.78
1562.00	28170.69
1563.00	28105.15
1564.00	28070.04
1565.00	27960.04
1566.00	27927.27
1567.00	27942.88
1568.00	28057.56
1569.00	28052.10
1570.00	27958.48
1571.00	27686.20
1572.00	27534.84
1573.00	27291.43
1574.00	27220.43
1575.00	27142.41
1576.00	27023.83
1577.00	26907.58
1578.00	26842.82
1579.00	26933.32
1580.00	26824.88
1581.00	26784.31
1582.00	26614.23
1583.00	26603.31
1584.00	26557.28
1585.00	26557.28
1586.00	26529.97
1587.00	26164.07
1588.00	26077.47
1589.00	26073.57
1590.00	26155.49
1591.00	26131.30
1592.00	26088.39
1593.00	26252.23
1594.00	26343.51
1595.00	26373.16
1596.00	26359.89
1597.00	26334.93
1598.00	26306.84
1599.00	26170.31
1600.00	26078.25
1601.00	25844.98
1602.00	25781.78
1603.00	25692.84
1604.00	25747.45
1605.00	25749.01
1606.00	25740.43
1607.00	25756.04
1608.00	25759.94
1609.00	25765.40
1610.00	25725.61
1611.00	25665.53
1612.00	25675.68
1613.00	25624.18
1614.00	25624.18
1615.00	25450.21
1616.00	25395.59
1617.00	25289.49
1618.00	25161.54
1619.00	24915.78
1620.00	24753.51
1621.00	24712.16
1622.00	24772.23
1623.00	24667.69
1624.00	24757.41
1625.00	24687.19
1626.00	24784.71
1627.00	24464.84
1628.00	24271.36
1629.00	24028.72
1630.00	24098.16
1631.00	24049.78
1632.00	24119.22
1633.00	23953.82
1634.00	23999.07
1635.00	23899.21
1636.00	24027.94
1637.00	24045.88
1638.00	23875.02
1639.00	23672.96
1640.00	23420.96
1641.00	23262.58
1642.00	23032.43
1643.00	22823.34
1644.00	22700.08
1645.00	22797.60
1646.00	23037.89
1647.00	23398.34
1648.00	23738.49
1649.00	24012.34
1650.00	24297.10
1651.00	24341.57
1652.00	24461.72
1653.00	24409.45
1654.00	24213.62
1655.00	23846.94
1656.00	23546.57
1657.00	23263.36
1658.00	23033.21
1659.00	22915.40
1660.00	23168.96
1661.00	23493.52
1662.00	23555.15
1663.00	23445.15
1664.00	23418.62
1665.00	23572.32
1666.00	23680.76
1667.00	23708.07
1668.00	23665.16
1669.00	23587.92
1670.00	23544.23
1671.00	23459.97
1672.00	23403.80
1673.00	23315.64
1674.00	23285.99
1675.00	23198.61
1676.00	23042.57
1677.00	22916.97
1678.00	22594.75
1679.00	22527.66
1680.00	22283.46
1681.00	22339.63
1682.00	22170.33
1683.00	21901.17
1684.00	21456.47
1685.00	20948.57
1686.00	20429.76
1687.00	19831.36
1688.00	19048.06
1689.00	18375.55
1690.00	17974.53
1691.00	17976.09
1692.00	18389.59
1693.00	19020.75
1694.00	19685.47
1695.00	20255.00
1696.00	20693.46
1697.00	21101.49
1698.00	21398.74
1699.00	21615.63
1700.00	21854.36
1701.00	22007.28
1702.00	22130.55
1703.00	21986.99
1704.00	22023.66
1705.00	22073.59
1706.00	22185.16
1707.00	22141.47
1708.00	22044.73
1709.00	21873.87
1710.00	21788.83
1711.00	21756.84
1712.00	21915.22
1713.00	21965.15
1714.00	21981.53
1715.00	21955.79
1716.00	21848.90
1717.00	21848.12
1718.00	21801.31
1719.00	21818.47
1720.00	21840.32
1721.00	21818.47
1722.00	21763.08
1723.00	21592.22
1724.00	21628.89
1725.00	21738.90
1726.00	21869.19
1727.00	21724.85
1728.00	21738.90
1729.00	21706.91
1730.00	21821.59
1731.00	21694.43
1732.00	21567.26
1733.00	21370.65
1734.00	21311.36
1735.00	21250.50
1736.00	21215.40
1737.00	21078.08
1738.00	20954.82
1739.00	20869.00
1740.00	20812.82
1741.00	20826.87
1742.00	20738.71
1743.00	20582.67
1744.00	20560.05
1745.00	20507.77
1746.00	20702.82
1747.00	20592.81
1748.00	20625.58
1749.00	20503.87
1750.00	20633.38
1751.00	20633.38
1752.00	20680.97
1753.00	20542.88
1754.00	20636.50
1755.00	20577.21
1756.00	20518.70
1757.00	20308.83
1758.00	20120.81
1759.00	20028.74
1760.00	19917.18
1761.00	19896.89
1762.00	19913.28
1763.00	19985.05
1764.00	20011.58
1765.00	20044.35
1766.00	20000.66
1767.00	19847.74
1768.00	19668.30
1769.00	19539.57
1770.00	19538.79
1771.00	19563.76
1772.00	19523.19
1773.00	19634.75
1774.00	19701.07
1775.00	19802.49
1776.00	19669.86
1777.00	19633.97
1778.00	19579.36
1779.00	19599.65
1780.00	19491.98
1781.00	19383.54
1782.00	19328.92
1783.00	19101.11
1784.00	18956.00
1785.00	18871.74
1786.00	18899.05
1787.00	18962.24
1788.00	18933.37
1789.00	18924.01
1790.00	18913.09
1791.00	18772.66
1792.00	18725.07
1793.00	18545.62
1794.00	18572.93
1795.00	18514.42
1796.00	18448.88
1797.00	18308.45
1798.00	18152.41
1799.00	18116.53
1800.00	18022.12
1801.00	17973.75
1802.00	17934.74
1803.00	17965.17
1804.00	17961.27
1805.00	17919.92
1806.00	17882.47
1807.00	17833.32
1808.00	17821.62
1809.00	17744.38
1810.00	17774.81
1811.00	17727.22
1812.00	17715.51
1813.00	17624.23
1814.00	17549.34
1815.00	17446.35
1816.00	17369.90
1817.00	17263.01
1818.00	17207.62
1819.00	17142.86
1820.00	17103.85
1821.00	17131.16
1822.00	17087.47
1823.00	17060.16
1824.00	16989.17
1825.00	16996.19
1826.00	16923.63
1827.00	16864.34
1828.00	16878.38
1829.00	17030.52
1830.00	16894.77
1831.00	16825.33
1832.00	16731.71
1833.00	16788.66
1834.00	16795.68
1835.00	16644.33
1836.00	16468.01
1837.00	16363.47
1838.00	16400.91
1839.00	16502.34
1840.00	16528.08
1841.00	16433.68
1842.00	16352.54
1843.00	16259.70
1844.00	16164.52
1845.00	16089.62
1846.00	15882.88
1847.00	15827.48
1848.00	15806.42
1849.00	15770.53
1850.00	15729.96
1851.00	15660.52
1852.00	15671.45
1853.00	15674.57
1854.00	15660.52
1855.00	15514.63
1856.00	15376.54
1857.00	15290.72
1858.00	15307.10
1859.00	15290.72
1860.00	15145.61
1861.00	15070.71
1862.00	15048.08
1863.00	15238.45
1864.00	15208.80
1865.00	15080.07
1866.00	14843.68
1867.00	14785.16
1868.00	14808.57
1869.00	14822.61
1870.00	14836.66
1871.00	14704.81
1872.00	14587.78
1873.00	14475.43
1874.00	14480.11
1875.00	14535.51
1876.00	14423.16
1877.00	14437.98
1878.00	14273.37
1879.00	14318.62
1880.00	14202.37
1881.00	14158.68
1882.00	14046.34
1883.00	13898.88
1884.00	13901.22
1885.00	13767.81
1886.00	13744.41
1887.00	13540.00
1888.00	13480.71
1889.00	13472.90
1890.00	13554.82
1891.00	13552.48
1892.00	13567.31
1893.00	13460.42
1894.00	13501.77
1895.00	13422.97
1896.00	13409.71
1897.00	13369.14
1898.00	13246.65
1899.00	13144.45
1900.00	13078.13
1901.00	13042.25
1902.00	12968.13
1903.00	12769.18
1904.00	12343.21
1905.00	11763.53
1906.00	10796.11
1907.00	9876.28
1908.00	9013.40
1909.00	8491.46
1910.00	8145.84
1911.00	7953.14
1912.00	7994.49
1913.00	8184.85
1914.00	8513.31
1915.00	9002.48
1916.00	9486.19
1917.00	9834.93
1918.00	9884.86
1919.00	9966.00
1920.00	9908.27
1921.00	9859.12
1922.00	9742.09
1923.00	9705.42
1924.00	9604.78
1925.00	9486.97
1926.00	9465.91
1927.00	9461.23
1928.00	9512.72
1929.00	9567.33
1930.00	9653.93
1931.00	9714.00
1932.00	9764.71
1933.00	9895.78
1934.00	9896.57
1935.00	9943.38
1936.00	9939.48
1937.00	10024.51
1938.00	10069.76
1939.00	10151.68
1940.00	10210.20
1941.00	10246.87
1942.00	10122.82
1943.00	10143.10
1944.00	10018.27
1945.00	10055.72
1946.00	9993.31
1947.00	10069.76
1948.00	10079.91
1949.00	10073.67
1950.00	9977.70
1951.00	9958.20
1952.00	9846.63
1953.00	9856.78
1954.00	9805.28
1955.00	9753.79
1956.00	9653.15
1957.00	9581.37
1958.00	9613.36
1959.00	9564.21
1960.00	9526.76
1961.00	9393.35
1962.00	9337.96
1963.00	9295.83
1964.00	9312.21
1965.00	9248.24
1966.00	9242.00
1967.00	9188.16
1968.00	9213.91
1969.00	9182.70
1970.00	9114.05
1971.00	9039.93
1972.00	8992.34
1973.00	9023.55
1974.00	9034.47
1975.00	8997.80
1976.00	8966.59
1977.00	8965.03
1978.00	8895.60
1979.00	8959.57
1980.00	9023.55
1981.00	9086.74
1982.00	9111.71
1983.00	9064.89
1984.00	9096.10
1985.00	8989.22
1986.00	9018.86
1987.00	8919.00
1988.00	8848.79
1989.00	8684.17
1990.00	8586.65
1991.00	8482.88
1992.00	8469.62
1993.00	8408.76
1994.00	8397.84
1995.00	8359.61
1996.00	8319.82
1997.00	8238.69
1998.00	8147.40
1999.00	8050.66
2000.00	8035.84
2001.00	7974.99
2002.00	7954.70
2003.00	7932.86
2004.00	7908.67
2005.00	7903.21
2006.00	7873.56
2007.00	7838.45
2008.00	7797.10
2009.00	7730.01
2010.00	7716.75
2011.00	7682.42
2012.00	7631.71
2013.00	7508.44
2014.00	7485.81
2015.00	7455.39
2016.00	7435.88
2017.00	7364.89
2018.00	7322.76
2019.00	7300.13
2020.00	7277.51
2021.00	7231.48
2022.00	7206.51
2023.00	7142.53
2024.00	7093.38
2025.00	7087.14
2026.00	7099.62
2027.00	7105.87
2028.00	7106.65
2029.00	7112.11
2030.00	7204.95
2031.00	7202.61
2032.00	7169.06
2033.00	7100.41
2034.00	7017.71
2035.00	6960.75
2036.00	6874.15
2037.00	6931.11
2038.00	7007.56
2039.00	7031.75
2040.00	6973.24
2041.00	6915.50
2042.00	6864.79
2043.00	6746.98
2044.00	6718.12
2045.00	6675.99
2046.00	6693.15
2047.00	6619.04
>>>>>End Processed Spectral Data<<<<<
