SpectraSuite Data File
++++++++++++++++++++++++++++++++++++
Date: Thu Nov 16 13:32:47 EST 2017
User: cheriyan
Dark Spectrum Present: No
Reference Spectrum Present: No
Number of Sampled Component Spectra: 1
Spectrometers: USB2+H05261
Integration Time (usec): 90000 (USB2+H05261)
Spectra Averaged: 1 (USB2+H05261)
Boxcar Smoothing: 1 (USB2+H05261)
Correct for Electrical Dark: No (USB2+H05261)
Strobe/Lamp Enabled: No (USB2+H05261)
Correct for Detector Non-linearity: No (USB2+H05261)
Correct for Stray Light: No (USB2+H05261)
Number of Pixels in Processed Spectrum: 2048
>>>>>Begin Processed Spectral Data<<<<<
0.00	388.53
1.00	388.53
2.00	336.26
3.00	301.93
4.00	260.58
5.00	253.56
6.00	257.46
7.00	256.68
8.00	268.38
9.00	259.80
10.00	265.26
11.00	268.38
12.00	269.94
13.00	259.80
14.00	283.98
15.00	281.64
16.00	282.42
17.00	251.22
18.00	244.98
19.00	250.44
20.00	255.12
21.00	281.64
22.00	298.03
23.00	759.89
24.00	2466.14
25.00	4313.61
26.00	5749.14
27.00	5877.09
28.00	5736.65
29.00	5492.46
30.00	5235.00
31.00	5199.89
32.00	5276.35
33.00	5398.06
34.00	5369.97
35.00	5207.69
36.00	4953.35
37.00	4822.28
38.00	4766.89
39.00	4869.09
40.00	4975.98
41.00	5067.26
42.00	5026.69
43.00	4983.00
44.00	5034.49
45.00	5251.38
46.00	5499.48
47.00	5750.70
48.00	5955.10
49.00	6018.30
50.00	5993.33
51.00	5932.48
52.00	5912.97
53.00	6012.06
54.00	6186.04
55.00	6439.59
56.00	6679.11
57.00	6867.13
58.00	7096.50
59.00	7360.98
60.00	7554.47
61.00	7565.39
62.00	7363.33
63.00	7107.43
64.00	6839.05
65.00	6647.12
66.00	6477.82
67.00	6285.12
68.00	6132.20
69.00	6109.58
70.00	6257.81
71.00	6547.26
72.00	6842.95
73.00	7048.13
74.00	7143.32
75.00	7096.50
76.00	6942.81
77.00	6654.92
78.00	6330.37
79.00	6030.78
80.00	5749.14
81.00	5476.85
82.00	5238.12
83.00	5068.04
84.00	4926.83
85.00	4806.68
86.00	4674.05
87.00	4618.66
88.00	4642.06
89.00	4720.86
90.00	4947.89
91.00	5312.24
92.00	5760.06
93.00	6264.05
94.00	6647.90
95.00	6888.20
96.00	6843.73
97.00	6721.24
98.00	6567.54
99.00	6441.93
100.00	6345.97
101.00	6395.12
102.00	6522.29
103.00	6766.49
104.00	6835.92
105.00	6852.31
106.00	6774.29
107.00	6786.77
108.00	6806.28
109.00	6848.41
110.00	6870.25
111.00	6882.74
112.00	6794.58
113.00	6810.96
114.00	6839.05
115.00	7023.95
116.00	7294.67
117.00	7701.92
118.00	8122.44
119.00	8415.01
120.00	8626.43
121.00	8648.28
122.00	8666.22
123.00	8659.20
124.00	8826.94
125.00	8931.48
126.00	9200.65
127.00	9501.79
128.00	9777.98
129.00	9796.70
130.00	9524.42
131.00	9259.16
132.00	8930.70
133.00	8517.99
134.00	7983.57
135.00	7226.01
136.00	6427.11
137.00	5563.45
138.00	4972.86
139.00	4762.99
140.00	4972.08
141.00	5520.54
142.00	6278.88
143.00	7117.57
144.00	7916.47
145.00	8657.64
146.00	9295.83
147.00	9796.70
148.00	10125.16
149.00	10280.41
150.00	10303.04
151.00	10068.98
152.00	9619.60
153.00	8848.01
154.00	7940.66
155.00	6978.70
156.00	6320.23
157.00	6026.10
158.00	6310.08
159.00	7088.70
160.00	8205.14
161.00	9430.80
162.00	10549.57
163.00	11450.68
164.00	12060.78
165.00	12558.53
166.00	13036.00
167.00	13463.54
168.00	13692.13
169.00	13898.88
170.00	13990.16
171.00	14095.49
172.00	14150.88
173.00	14281.95
174.00	14360.75
175.00	14495.72
176.00	14558.13
177.00	14719.63
178.00	14906.87
179.00	15253.27
180.00	15527.11
181.00	15727.62
182.00	15806.42
183.00	15925.00
184.00	15983.52
185.00	15969.48
186.00	15917.98
187.00	15858.69
188.00	15682.37
189.00	15425.69
190.00	15342.99
191.00	15529.45
192.00	15889.90
193.00	16095.86
194.00	16006.92
195.00	15924.22
196.00	15552.08
197.00	15557.54
198.00	15502.15
199.00	15788.47
200.00	15880.53
201.00	15876.63
202.00	15846.99
203.00	15710.46
204.00	15637.12
205.00	15424.91
206.00	15295.40
207.00	15289.94
208.00	15479.52
209.00	15797.06
210.00	15971.04
211.00	15926.57
212.00	15810.32
213.00	15874.29
214.00	16214.45
215.00	16567.87
216.00	16922.07
217.00	17211.52
218.00	17460.40
219.00	17802.11
220.00	17901.20
221.00	17901.20
222.00	17501.75
223.00	16915.05
224.00	16355.66
225.00	15717.48
226.00	15525.55
227.00	15636.34
228.00	16039.69
229.00	16625.61
230.00	17226.34
231.00	17864.53
232.00	18312.35
233.00	18610.38
234.00	18798.40
235.00	19010.61
236.00	19146.36
237.00	19246.23
238.00	19075.37
239.00	18910.75
240.00	18657.97
241.00	18594.00
242.00	18538.60
243.00	18640.03
244.00	18943.52
245.00	19147.92
246.00	19395.24
247.00	19371.05
248.00	19463.11
249.00	19447.51
250.00	19428.01
251.00	19405.38
252.00	19473.26
253.00	19527.09
254.00	19612.91
255.00	19924.98
256.00	20324.43
257.00	20801.12
258.00	21032.05
259.00	21191.21
260.00	20977.44
261.00	20686.43
262.00	20220.67
263.00	19999.10
264.00	19871.15
265.00	19849.30
266.00	19939.80
267.00	20122.37
268.00	20362.66
269.00	20368.90
270.00	20304.15
271.00	20394.65
272.00	20724.66
273.00	20975.88
274.00	20872.12
275.00	20721.54
276.00	20513.24
277.00	20290.88
278.00	20127.83
279.00	20251.10
280.00	20864.32
281.00	21420.58
282.00	21937.06
283.00	22188.28
284.00	22317.79
285.00	22242.11
286.00	22226.51
287.00	21992.45
288.00	21707.69
289.00	21170.15
290.00	20612.32
291.00	20063.07
292.00	19805.61
293.00	20100.52
294.00	20503.09
295.00	20904.10
296.00	21039.08
297.00	21089.79
298.00	21170.93
299.00	21257.53
300.00	21380.01
301.00	21110.85
302.00	21003.19
303.00	20939.99
304.00	20983.68
305.00	20917.37
306.00	20664.59
307.00	20601.40
308.00	20386.85
309.00	20418.05
310.00	20574.09
311.00	20861.98
312.00	20958.72
313.00	20757.43
314.00	20182.44
315.00	19672.98
316.00	19342.19
317.00	19410.06
318.00	19635.53
319.00	19933.56
320.00	20255.78
321.00	20343.94
322.00	20173.86
323.00	20016.26
324.00	19838.38
325.00	19775.19
326.00	19619.93
327.00	19302.40
328.00	18806.98
329.00	18038.51
330.00	17253.65
331.00	16293.25
332.00	15512.29
333.00	15009.86
334.00	14932.62
335.00	15210.36
336.00	15854.01
337.00	17042.22
338.00	18757.83
339.00	20751.97
340.00	22263.96
341.00	22953.63
342.00	22476.94
343.00	21826.28
344.00	21279.37
345.00	21482.22
346.00	22068.91
347.00	22576.03
348.00	23030.87
349.00	22820.22
350.00	22062.67
351.00	20940.77
352.00	20226.13
353.00	20387.63
354.00	20936.09
355.00	21533.71
356.00	22119.62
357.00	22653.26
358.00	22990.30
359.00	23157.26
360.00	23264.92
361.00	23687.00
362.00	24127.02
363.00	24648.18
364.00	24978.20
365.00	24993.80
366.00	24877.55
367.00	24553.00
368.00	24219.86
369.00	23727.57
370.00	23636.29
371.00	23513.02
372.00	23413.16
373.00	22780.43
374.00	22093.88
375.00	21646.83
376.00	21386.26
377.00	21538.39
378.00	21955.79
379.00	22631.42
380.00	23280.53
381.00	23876.59
382.00	24502.29
383.00	24854.93
384.00	24672.37
385.00	24301.00
386.00	24159.01
387.00	24286.96
388.00	24823.72
389.00	25479.85
390.00	26216.34
391.00	26659.48
392.00	26874.03
393.00	27229.79
394.00	27643.29
395.00	27888.26
396.00	28009.19
397.00	28222.18
398.00	28612.27
399.00	28793.27
400.00	28523.33
401.00	28360.27
402.00	28238.56
403.00	28446.87
404.00	28675.46
405.00	28904.06
406.00	29106.12
407.00	28885.33
408.00	28575.60
409.00	28533.47
410.00	28809.65
411.00	29014.06
412.00	28572.48
413.00	27850.81
414.00	27206.39
415.00	26720.34
416.00	26510.47
417.00	26603.31
418.00	27069.86
419.00	27567.61
420.00	27945.22
421.00	28336.09
422.00	28851.78
423.00	29427.56
424.00	29680.33
425.00	29880.06
426.00	29784.10
427.00	29538.34
428.00	29330.03
429.00	29144.35
430.00	29311.31
431.00	29044.49
432.00	28976.61
433.00	28932.92
434.00	29194.28
435.00	29292.58
436.00	29340.96
437.00	29630.40
438.00	30091.49
439.00	30539.31
440.00	31175.94
441.00	31657.31
442.00	31950.65
443.00	31817.24
444.00	31571.49
445.00	31367.08
446.00	31101.04
447.00	31069.05
448.00	31016.78
449.00	30816.27
450.00	30507.32
451.00	30074.32
452.00	29378.40
453.00	28825.26
454.00	28361.83
455.00	28425.81
456.00	28638.01
457.00	29144.35
458.00	29725.58
459.00	30041.56
460.00	30338.80
461.00	30398.10
462.00	30580.66
463.00	30347.39
464.00	30286.53
465.00	29908.93
466.00	29980.70
467.00	30137.52
468.00	30387.96
469.00	30887.27
470.00	31229.77
471.00	31754.05
472.00	31820.36
473.00	31952.21
474.00	32122.29
475.00	32114.49
476.00	32286.13
477.00	32476.49
478.00	32763.60
479.00	32868.92
480.00	32508.48
481.00	32290.03
482.00	31585.53
483.00	31377.22
484.00	31313.25
485.00	31523.90
486.00	31633.12
487.00	31646.38
488.00	31779.01
489.00	31862.49
490.00	31720.50
491.00	31588.65
492.00	31474.74
493.00	31620.64
494.00	31764.97
495.00	32030.23
496.00	32365.71
497.00	32744.09
498.00	32962.54
499.00	33015.60
500.00	32941.48
501.00	33039.00
502.00	33153.69
503.00	33326.89
504.00	33439.23
505.00	33589.81
506.00	33592.15
507.00	33936.99
508.00	33767.69
509.00	33817.62
510.00	33513.35
511.00	33490.73
512.00	33379.94
513.00	33191.92
514.00	33006.23
515.00	33096.74
516.00	32886.87
517.00	32753.46
518.00	32186.27
519.00	32077.04
520.00	32435.92
521.00	32783.10
522.00	32826.79
523.00	32912.61
524.00	33175.53
525.00	33507.89
526.00	33095.96
527.00	32566.21
528.00	31958.45
529.00	31545.74
530.00	31442.76
531.00	31470.84
532.00	31951.43
533.00	32289.25
534.00	32489.76
535.00	32591.96
536.00	32300.95
537.00	32333.72
538.00	32310.32
539.00	32596.64
540.00	32811.19
541.00	32861.12
542.00	32960.98
543.00	33124.82
544.00	33076.45
545.00	32957.08
546.00	32387.55
547.00	32080.94
548.00	31745.47
549.00	31769.65
550.00	31646.38
551.00	31825.82
552.00	32013.85
553.00	32317.34
554.00	32613.80
555.00	33065.53
556.00	33528.17
557.00	34161.68
558.00	34723.41
559.00	35186.05
560.00	35309.32
561.00	35162.65
562.00	34653.97
563.00	34160.12
564.00	33804.36
565.00	33960.39
566.00	34263.10
567.00	34238.92
568.00	34338.78
569.00	34241.26
570.00	34827.95
571.00	35268.75
572.00	35765.73
573.00	35792.25
574.00	35786.01
575.00	35695.51
576.00	35757.14
577.00	35732.18
578.00	35883.53
579.00	35765.73
580.00	35752.46
581.00	35627.63
582.00	35692.39
583.00	35612.81
584.00	35797.71
585.00	36167.52
586.00	36826.77
587.00	37063.94
588.00	37208.28
589.00	37613.97
590.00	38228.75
591.00	38801.40
592.00	38878.64
593.00	38905.94
594.00	38841.19
595.00	38748.35
596.00	38900.48
597.00	39193.83
598.00	39817.19
599.00	40257.21
600.00	40664.47
601.00	40628.58
602.00	40651.98
603.00	40748.73
604.00	41004.63
605.00	41525.78
606.00	41611.60
607.00	41800.41
608.00	41686.50
609.00	42086.73
610.00	42478.38
611.00	42760.81
612.00	43037.77
613.00	43367.01
614.00	43456.73
615.00	43431.76
616.00	43356.08
617.00	43558.15
618.00	43785.18
619.00	43975.55
620.00	44163.57
621.00	44300.10
622.00	44307.90
623.00	44701.11
624.00	44580.18
625.00	44433.51
626.00	44039.52
627.00	44246.27
628.00	44498.26
629.00	44854.81
630.00	45191.06
631.00	45141.13
632.00	44344.57
633.00	43384.17
634.00	42147.59
635.00	40588.01
636.00	39104.11
637.00	38337.19
638.00	38785.02
639.00	39496.54
640.00	40712.06
641.00	41824.59
642.00	43014.37
643.00	43974.77
644.00	45034.25
645.00	45715.34
646.00	46644.54
647.00	47062.71
648.00	47629.12
649.00	47822.61
650.00	47769.55
651.00	47704.02
652.00	47277.26
653.00	47331.09
654.00	47641.60
655.00	48545.05
656.00	49523.40
657.00	50293.43
658.00	50767.78
659.00	51165.67
660.00	51353.69
661.00	51395.04
662.00	51212.48
663.00	50992.47
664.00	51005.73
665.00	51002.61
666.00	51006.51
667.00	50742.81
668.00	50253.64
669.00	49588.93
670.00	49107.56
671.00	49133.31
672.00	49939.23
673.00	50876.22
674.00	51885.78
675.00	52456.87
676.00	52587.16
677.00	52417.08
678.00	52005.92
679.00	51899.04
680.00	51936.49
681.00	52298.49
682.00	52727.59
683.00	53261.23
684.00	53738.70
685.00	54199.79
686.00	54485.33
687.00	54596.12
688.00	54268.44
689.00	53938.43
690.00	53558.48
691.00	53445.35
692.00	53495.28
693.00	53783.95
694.00	54290.29
695.00	54582.07
696.00	54745.13
697.00	54724.85
698.00	54936.27
699.00	55008.83
700.00	55297.50
701.00	55245.22
702.00	55214.02
703.00	54721.73
704.00	54263.76
705.00	53736.36
706.00	53692.67
707.00	53826.08
708.00	54348.02
709.00	54772.44
710.00	55241.32
711.00	55533.11
712.00	55585.38
713.00	55626.73
714.00	55434.03
715.00	55228.06
716.00	54792.72
717.00	54556.33
718.00	54306.67
719.00	54183.40
720.00	54045.31
721.00	53885.37
722.00	53805.80
723.00	53641.96
724.00	53653.66
725.00	53527.27
726.00	53634.16
727.00	53948.57
728.00	54353.48
729.00	54696.76
730.00	54809.89
731.00	54940.17
732.00	55128.20
733.00	55313.88
734.00	55292.04
735.00	55089.19
736.00	54520.44
737.00	54130.35
738.00	53813.60
739.00	54060.91
740.00	54413.55
741.00	54916.77
742.00	55199.97
743.00	55254.59
744.00	55397.36
745.00	55730.50
746.00	56139.31
747.00	56519.26
748.00	56711.96
749.00	56956.16
750.00	56798.56
751.00	56534.86
752.00	56299.25
753.00	56012.14
754.00	55966.89
755.00	55898.23
756.00	56014.48
757.00	55876.39
758.00	55571.34
759.00	55323.24
760.00	55014.29
761.00	54962.80
762.00	55082.95
763.00	55467.58
764.00	55871.71
765.00	56180.66
766.00	56546.56
767.00	56824.31
768.00	56909.35
769.00	56750.19
770.00	56512.23
771.00	56289.88
772.00	56246.97
773.00	56250.09
774.00	56384.29
775.00	56374.14
776.00	56328.11
777.00	56320.31
778.00	56427.20
779.00	56753.31
780.00	57030.27
781.00	57396.18
782.00	57514.76
783.00	57478.88
784.00	57161.34
785.00	56789.20
786.00	56430.32
787.00	56202.50
788.00	56096.40
789.00	56191.58
790.00	56314.07
791.00	56444.36
792.00	56364.78
793.00	56227.47
794.00	56024.62
795.00	55796.81
796.00	55749.22
797.00	55724.25
798.00	55892.77
799.00	55998.10
800.00	56119.80
801.00	56298.47
802.00	56327.33
803.00	56381.16
804.00	56452.16
805.00	56730.68
806.00	56898.42
807.00	56653.45
808.00	55921.64
809.00	54766.98
810.00	53515.57
811.00	52315.65
812.00	51246.03
813.00	50763.10
814.00	51074.39
815.00	52298.49
816.00	53672.38
817.00	54542.28
818.00	54636.69
819.00	54029.71
820.00	53275.27
821.00	53019.38
822.00	53312.72
823.00	54086.66
824.00	54656.19
825.00	55128.20
826.00	55332.60
827.00	55673.54
828.00	56002.00
829.00	56291.44
830.00	56515.36
831.00	56562.95
832.00	56521.60
833.00	56210.31
834.00	56074.55
835.00	56065.97
836.00	56338.26
837.00	56587.13
838.00	56848.49
839.00	56931.19
840.00	57089.57
841.00	57198.79
842.00	57326.74
843.00	57093.47
844.00	56703.38
845.00	56260.24
846.00	55968.45
847.00	55861.57
848.00	55845.18
849.00	56047.25
850.00	56388.97
851.00	56804.02
852.00	57241.70
853.00	57567.04
854.00	57839.32
855.00	57872.87
856.00	57821.37
857.00	57659.88
858.00	57535.83
859.00	57396.18
860.00	57353.27
861.00	57354.83
862.00	57538.95
863.00	57543.63
864.00	57334.54
865.00	56767.35
866.00	56019.94
867.00	55121.18
868.00	54253.62
869.00	53787.07
870.00	53447.69
871.00	53652.10
872.00	53882.25
873.00	54597.68
874.00	55256.93
875.00	55816.32
876.00	56261.80
877.00	56417.83
878.00	56678.41
879.00	56862.54
880.00	57159.78
881.00	57503.06
882.00	57724.63
883.00	57861.94
884.00	57659.10
885.00	57342.34
886.00	56867.22
887.00	56519.26
888.00	56450.60
889.00	56648.77
890.00	56978.78
891.00	57318.16
892.00	57589.66
893.00	57749.60
894.00	57807.33
895.00	57719.95
896.00	57653.64
897.00	57472.63
898.00	57347.81
899.00	57088.01
900.00	56875.02
901.00	56499.75
902.00	56000.44
903.00	55409.84
904.00	54905.85
905.00	54907.41
906.00	55050.96
907.00	55570.56
908.00	55955.97
909.00	56459.18
910.00	56458.40
911.00	56431.88
912.00	56146.33
913.00	56101.08
914.00	55931.78
915.00	56026.96
916.00	56158.03
917.00	56431.88
918.00	56691.68
919.00	56823.53
920.00	57034.95
921.00	57271.35
922.00	57510.08
923.00	57383.69
924.00	57070.06
925.00	56723.66
926.00	56424.07
927.00	55948.95
928.00	55444.17
929.00	55175.01
930.00	55196.07
931.00	55473.82
932.00	55873.27
933.00	56153.35
934.00	56310.17
935.00	56329.67
936.00	56387.41
937.00	56398.33
938.00	56299.25
939.00	56209.53
940.00	56094.84
941.00	55794.47
942.00	55551.05
943.00	55256.15
944.00	55145.36
945.00	54901.95
946.00	54786.48
947.00	54561.79
948.00	54568.81
949.00	54365.18
950.00	54263.76
951.00	54071.06
952.00	53882.25
953.00	53958.71
954.00	54156.88
955.00	54613.28
956.00	54980.74
957.00	55100.89
958.00	55340.41
959.00	55285.79
960.00	55263.17
961.00	54997.13
962.00	54959.68
963.00	54912.09
964.00	54905.07
965.00	54743.57
966.00	54755.27
967.00	54853.58
968.00	55078.27
969.00	55281.11
970.00	55618.93
971.00	55972.35
972.00	56114.34
973.00	55855.32
974.00	55554.96
975.00	55371.61
976.00	55336.51
977.00	55321.68
978.00	55297.50
979.00	55300.62
980.00	55272.53
981.00	55313.88
982.00	55357.57
983.00	55331.04
984.00	55216.36
985.00	55093.87
986.00	54995.57
987.00	55036.14
988.00	55121.18
989.00	54993.23
990.00	54901.17
991.00	54537.60
992.00	54390.93
993.00	54018.00
994.00	54007.08
995.00	54193.54
996.00	54486.89
997.00	54815.35
998.00	55004.15
999.00	55177.35
1000.00	55143.02
1001.00	55041.60
1002.00	54895.70
1003.00	54784.14
1004.00	54845.77
1005.00	54919.89
1006.00	55036.92
1007.00	54905.85
1008.00	54768.54
1009.00	54490.79
1010.00	54350.36
1011.00	54139.71
1012.00	54227.87
1013.00	54215.39
1014.00	54284.83
1015.00	54255.18
1016.00	54390.93
1017.00	54691.30
1018.00	54912.09
1019.00	55042.38
1020.00	54795.06
1021.00	54589.09
1022.00	54194.32
1023.00	53925.94
1024.00	53664.58
1025.00	53777.71
1026.00	54096.80
1027.00	54230.99
1028.00	54337.88
1029.00	54244.26
1030.00	54312.13
1031.00	54457.24
1032.00	54642.15
1033.00	54831.73
1034.00	54781.02
1035.00	54770.88
1036.00	54762.29
1037.00	54704.56
1038.00	54618.74
1039.00	54412.77
1040.00	54259.08
1041.00	54120.21
1042.00	53990.70
1043.00	53879.13
1044.00	53819.84
1045.00	53715.29
1046.00	53572.52
1047.00	53313.50
1048.00	53211.30
1049.00	53068.53
1050.00	53084.13
1051.00	53079.45
1052.00	53286.20
1053.00	53425.85
1054.00	53569.40
1055.00	53480.46
1056.00	53141.08
1057.00	52785.32
1058.00	52347.64
1059.00	51881.09
1060.00	51618.95
1061.00	51540.16
1062.00	51835.06
1063.00	51847.55
1064.00	52002.02
1065.00	51939.61
1066.00	52089.40
1067.00	51973.94
1068.00	52167.42
1069.00	52260.26
1070.00	52641.77
1071.00	52964.76
1072.00	53314.28
1073.00	53404.78
1074.00	53212.86
1075.00	52733.05
1076.00	52377.29
1077.00	52179.90
1078.00	52157.28
1079.00	51961.45
1080.00	51877.97
1081.00	51952.87
1082.00	52065.22
1083.00	52268.84
1084.00	52356.22
1085.00	52681.56
1086.00	52640.99
1087.00	52601.98
1088.00	52269.62
1089.00	52112.81
1090.00	51909.96
1091.00	51926.35
1092.00	51767.19
1093.00	51648.60
1094.00	51662.64
1095.00	51789.81
1096.00	51942.73
1097.00	51902.94
1098.00	51768.75
1099.00	51509.73
1100.00	51109.50
1101.00	50763.10
1102.00	50485.36
1103.00	50344.92
1104.00	50411.24
1105.00	50432.30
1106.00	50590.68
1107.00	50667.92
1108.00	51050.20
1109.00	51324.83
1110.00	51568.24
1111.00	51551.86
1112.00	51614.27
1113.00	51604.13
1114.00	51437.95
1115.00	51107.94
1116.00	50625.01
1117.00	50242.72
1118.00	49807.38
1119.00	49525.74
1120.00	49385.30
1121.00	49368.92
1122.00	49618.58
1123.00	49766.81
1124.00	49946.25
1125.00	49911.14
1126.00	49905.68
1127.00	49773.05
1128.00	49542.12
1129.00	49177.78
1130.00	48713.57
1131.00	48179.15
1132.00	47844.45
1133.00	47637.70
1134.00	47569.05
1135.00	47606.50
1136.00	47813.24
1137.00	48108.15
1138.00	48356.25
1139.00	48728.39
1140.00	49055.29
1141.00	49277.64
1142.00	49424.31
1143.00	49421.19
1144.00	49454.74
1145.00	49216.78
1146.00	49261.26
1147.00	49286.22
1148.00	49366.58
1149.00	49111.46
1150.00	49009.26
1151.00	48869.61
1152.00	48932.02
1153.00	48805.63
1154.00	48714.35
1155.00	48396.82
1156.00	48071.48
1157.00	47901.40
1158.00	47780.48
1159.00	47530.82
1160.00	47256.20
1161.00	47132.15
1162.00	46966.75
1163.00	46759.22
1164.00	46536.87
1165.00	46739.72
1166.00	46836.46
1167.00	47111.08
1168.00	47107.96
1169.00	47260.88
1170.00	47363.08
1171.00	47431.74
1172.00	47252.30
1173.00	47100.16
1174.00	47009.66
1175.00	46980.79
1176.00	46812.27
1177.00	46478.36
1178.00	46229.48
1179.00	45922.87
1180.00	45753.57
1181.00	45656.05
1182.00	45746.55
1183.00	45892.44
1184.00	46206.86
1185.00	46355.09
1186.00	46555.60
1187.00	46575.10
1188.00	46660.92
1189.00	46617.23
1190.00	46737.38
1191.00	46687.45
1192.00	46592.26
1193.00	46331.68
1194.00	46344.17
1195.00	46419.06
1196.00	46684.33
1197.00	46557.16
1198.00	46521.27
1199.00	46273.95
1200.00	46427.65
1201.00	46642.98
1202.00	46773.27
1203.00	46864.55
1204.00	47035.41
1205.00	47214.07
1206.00	47094.70
1207.00	47059.59
1208.00	46912.14
1209.00	47010.44
1210.00	46941.00
1211.00	46858.31
1212.00	46785.75
1213.00	46670.28
1214.00	46616.45
1215.00	46635.95
1216.00	46533.75
1217.00	46488.50
1218.00	46420.62
1219.00	46476.02
1220.00	46523.61
1221.00	46196.71
1222.00	45822.23
1223.00	45482.85
1224.00	45203.55
1225.00	44921.90
1226.00	44632.46
1227.00	44615.29
1228.00	44460.04
1229.00	44586.43
1230.00	44681.61
1231.00	44974.17
1232.00	45019.42
1233.00	45141.13
1234.00	45107.58
1235.00	45183.26
1236.00	45116.95
1237.00	45053.75
1238.00	44783.03
1239.00	44559.12
1240.00	44238.47
1241.00	43809.37
1242.00	43015.93
1243.00	41908.85
1244.00	40730.00
1245.00	39689.24
1246.00	38972.26
1247.00	38438.62
1248.00	38142.15
1249.00	38151.51
1250.00	38561.89
1251.00	39147.02
1252.00	39998.98
1253.00	40965.62
1254.00	41834.74
1255.00	42444.05
1256.00	42701.51
1257.00	42928.55
1258.00	43077.56
1259.00	42769.39
1260.00	42504.91
1261.00	42121.06
1262.00	42285.68
1263.00	42360.58
1264.00	42364.48
1265.00	42225.60
1266.00	42090.63
1267.00	42271.64
1268.00	42252.13
1269.00	42322.35
1270.00	42119.50
1271.00	42210.78
1272.00	42267.73
1273.00	42369.16
1274.00	42465.90
1275.00	42391.78
1276.00	42113.26
1277.00	41816.01
1278.00	41591.32
1279.00	41342.44
1280.00	40923.49
1281.00	40583.33
1282.00	40601.27
1283.00	40765.89
1284.00	40885.26
1285.00	41198.89
1286.00	41503.16
1287.00	41763.74
1288.00	41670.90
1289.00	41630.33
1290.00	41681.82
1291.00	41779.34
1292.00	41940.06
1293.00	41943.96
1294.00	41909.63
1295.00	41749.70
1296.00	41761.40
1297.00	41619.41
1298.00	41586.64
1299.00	41463.37
1300.00	41345.56
1301.00	41255.84
1302.00	41092.79
1303.00	41040.51
1304.00	40993.70
1305.00	40999.94
1306.00	40826.74
1307.00	40896.96
1308.00	40761.21
1309.00	40989.02
1310.00	40777.59
1311.00	40903.98
1312.00	41068.60
1313.00	41088.88
1314.00	41079.52
1315.00	41034.27
1316.00	41048.32
1317.00	40949.23
1318.00	40769.01
1319.00	40506.09
1320.00	40449.14
1321.00	40196.36
1322.00	40397.65
1323.00	40255.65
1324.00	40365.66
1325.00	40126.92
1326.00	39890.53
1327.00	39640.09
1328.00	39563.64
1329.00	39580.80
1330.00	39661.94
1331.00	39688.46
1332.00	39739.18
1333.00	39843.72
1334.00	40136.29
1335.00	40394.53
1336.00	40522.48
1337.00	40732.34
1338.00	40750.29
1339.00	40786.96
1340.00	40488.93
1341.00	40495.17
1342.00	40446.80
1343.00	40411.69
1344.00	40396.87
1345.00	40243.17
1346.00	40112.10
1347.00	40093.38
1348.00	40007.56
1349.00	39925.64
1350.00	39576.90
1351.00	39711.87
1352.00	39542.57
1353.00	39508.24
1354.00	39308.52
1355.00	39353.77
1356.00	39516.04
1357.00	39518.39
1358.00	39484.06
1359.00	39484.84
1360.00	39414.62
1361.00	39516.04
1362.00	39517.60
1363.00	39506.68
1364.00	39232.84
1365.00	38974.60
1366.00	38746.79
1367.00	38726.50
1368.00	38467.48
1369.00	38394.15
1370.00	38222.51
1371.00	38294.28
1372.00	38195.98
1373.00	38217.83
1374.00	38142.93
1375.00	38139.81
1376.00	38041.51
1377.00	37989.24
1378.00	37968.17
1379.00	37778.59
1380.00	37561.70
1381.00	37352.61
1382.00	37308.14
1383.00	37308.14
1384.00	37103.73
1385.00	37245.72
1386.00	37314.38
1387.00	37541.41
1388.00	37425.17
1389.00	37474.32
1390.00	37529.71
1391.00	37516.45
1392.00	37221.54
1393.00	36978.12
1394.00	36784.64
1395.00	36599.74
1396.00	36411.71
1397.00	36447.60
1398.00	36655.13
1399.00	36907.13
1400.00	36921.95
1401.00	36763.57
1402.00	36343.06
1403.00	35818.00
1404.00	35445.85
1405.00	35321.02
1406.00	35380.32
1407.00	35666.64
1408.00	35771.97
1409.00	36065.31
1410.00	36079.36
1411.00	36105.10
1412.00	36081.70
1413.00	36056.73
1414.00	36063.75
1415.00	35913.96
1416.00	35553.52
1417.00	35243.79
1418.00	34844.34
1419.00	34469.07
1420.00	34284.17
1421.00	34129.69
1422.00	34195.23
1423.00	34144.52
1424.00	34284.95
1425.00	34353.60
1426.00	34433.18
1427.00	34349.70
1428.00	34491.69
1429.00	34666.45
1430.00	34973.06
1431.00	35244.57
1432.00	35261.73
1433.00	35277.33
1434.00	35110.38
1435.00	35123.64
1436.00	34962.14
1437.00	34832.63
1438.00	34503.40
1439.00	34391.83
1440.00	34304.45
1441.00	34586.10
1442.00	34708.58
1443.00	34735.11
1444.00	34605.60
1445.00	34554.89
1446.00	34577.51
1447.00	34664.89
1448.00	34695.32
1449.00	34639.15
1450.00	34590.78
1451.00	34535.38
1452.00	34441.76
1453.00	34261.54
1454.00	33956.49
1455.00	33681.09
1456.00	33315.19
1457.00	33155.25
1458.00	33360.44
1459.00	33388.52
1460.00	33569.52
1461.00	33512.57
1462.00	33432.99
1463.00	33134.96
1464.00	32833.82
1465.00	32815.09
1466.00	32810.41
1467.00	32803.39
1468.00	32686.36
1469.00	32549.05
1470.00	32489.76
1471.00	32521.74
1472.00	32433.58
1473.00	32195.63
1474.00	31829.73
1475.00	31651.84
1476.00	31737.66
1477.00	31850.79
1478.00	31720.50
1479.00	31406.87
1480.00	31176.72
1481.00	31199.34
1482.00	31132.25
1483.00	31228.99
1484.00	31249.27
1485.00	31408.43
1486.00	31415.45
1487.00	31353.82
1488.00	31394.39
1489.00	31400.63
1490.00	31583.19
1491.00	31576.95
1492.00	31391.27
1493.00	30931.74
1494.00	30394.20
1495.00	29802.82
1496.00	29222.37
1497.00	28701.21
1498.00	28522.55
1499.00	28586.52
1500.00	28881.43
1501.00	29188.04
1502.00	29542.24
1503.00	29759.91
1504.00	29841.05
1505.00	29825.45
1506.00	29672.53
1507.00	29452.52
1508.00	29205.98
1509.00	28979.73
1510.00	28819.02
1511.00	28575.60
1512.00	28528.79
1513.00	28627.87
1514.00	29100.66
1515.00	29429.90
1516.00	29536.78
1517.00	29448.62
1518.00	29304.29
1519.00	29247.33
1520.00	29005.48
1521.00	28700.43
1522.00	28456.23
1523.00	28425.81
1524.00	28692.63
1525.00	28870.51
1526.00	28968.81
1527.00	28951.65
1528.00	29121.73
1529.00	29242.65
1530.00	29323.01
1531.00	29315.21
1532.00	29326.13
1533.00	29280.88
1534.00	29076.48
1535.00	28930.58
1536.00	28814.34
1537.00	28776.89
1538.00	28798.73
1539.00	28748.80
1540.00	28785.47
1541.00	28893.13
1542.00	29088.96
1543.00	29073.35
1544.00	28981.29
1545.00	28979.73
1546.00	29106.90
1547.00	29029.66
1548.00	28910.30
1549.00	28718.37
1550.00	28566.24
1551.00	28382.90
1552.00	28301.76
1553.00	28338.43
1554.00	28371.97
1555.00	28598.23
1556.00	28626.31
1557.00	28552.20
1558.00	28515.53
1559.00	28646.60
1560.00	28878.31
1561.00	28817.46
1562.00	28838.52
1563.00	28737.88
1564.00	28692.63
1565.00	28453.89
1566.00	28356.37
1567.00	28345.45
1568.00	28595.10
1569.00	28598.23
1570.00	28603.69
1571.00	28241.68
1572.00	28112.17
1573.00	27956.14
1574.00	27871.10
1575.00	27749.39
1576.00	27493.49
1577.00	27298.45
1578.00	27236.81
1579.00	27307.03
1580.00	27386.61
1581.00	27290.65
1582.00	27319.51
1583.00	27294.55
1584.00	27398.31
1585.00	27354.62
1586.00	27328.10
1587.00	27108.08
1588.00	26977.79
1589.00	26920.84
1590.00	26998.08
1591.00	27001.98
1592.00	26929.42
1593.00	26920.06
1594.00	26906.02
1595.00	26881.05
1596.00	26994.18
1597.00	26949.71
1598.00	26939.57
1599.00	26813.18
1600.00	26784.31
1601.00	26785.09
1602.00	26641.54
1603.00	26488.62
1604.00	26553.38
1605.00	26636.86
1606.00	26757.00
1607.00	26638.42
1608.00	26565.08
1609.00	26466.00
1610.00	26329.47
1611.00	26241.31
1612.00	26101.65
1613.00	26128.96
1614.00	26018.96
1615.00	26042.36
1616.00	25976.05
1617.00	25912.85
1618.00	25802.85
1619.00	25600.00
1620.00	25443.18
1621.00	25329.28
1622.00	25440.06
1623.00	25483.75
1624.00	25380.77
1625.00	25116.29
1626.00	25074.16
1627.00	24994.58
1628.00	25001.60
1629.00	24803.44
1630.00	24834.64
1631.00	24834.64
1632.00	24825.28
1633.00	24760.53
1634.00	24684.07
1635.00	24687.19
1636.00	24776.91
1637.00	24799.54
1638.00	24835.42
1639.00	24624.78
1640.00	24350.93
1641.00	24041.98
1642.00	23726.01
1643.00	23566.85
1644.00	23342.16
1645.00	23432.66
1646.00	23670.62
1647.00	24095.82
1648.00	24479.66
1649.00	24716.84
1650.00	24805.00
1651.00	24797.98
1652.00	24824.50
1653.00	24812.80
1654.00	24707.48
1655.00	24415.69
1656.00	24151.99
1657.00	23912.47
1658.00	23791.55
1659.00	23729.91
1660.00	23864.10
1661.00	24015.46
1662.00	24230.01
1663.00	24231.57
1664.00	24264.33
1665.00	24247.17
1666.00	24214.40
1667.00	24254.97
1668.00	24164.47
1669.00	24099.72
1670.00	23872.68
1671.00	23908.57
1672.00	23981.91
1673.00	24095.82
1674.00	23988.93
1675.00	23915.59
1676.00	23862.54
1677.00	23744.73
1678.00	23523.94
1679.00	23236.06
1680.00	23091.73
1681.00	23040.23
1682.00	22935.69
1683.00	22737.52
1684.00	22366.16
1685.00	21869.97
1686.00	21191.99
1687.00	20325.99
1688.00	19452.19
1689.00	18752.37
1690.00	18474.63
1691.00	18615.06
1692.00	19065.22
1693.00	19679.22
1694.00	20294.00
1695.00	20851.83
1696.00	21230.22
1697.00	21586.76
1698.00	21901.95
1699.00	22199.20
1700.00	22432.47
1701.00	22569.01
1702.00	22745.33
1703.00	22799.16
1704.00	22757.03
1705.00	22764.05
1706.00	22725.82
1707.00	22766.39
1708.00	22715.68
1709.00	22705.54
1710.00	22477.72
1711.00	22201.54
1712.00	22090.76
1713.00	22198.42
1714.00	22346.65
1715.00	22431.69
1716.00	22557.30
1717.00	22555.74
1718.00	22486.31
1719.00	22402.05
1720.00	22407.51
1721.00	22395.03
1722.00	22370.84
1723.00	22441.84
1724.00	22449.64
1725.00	22464.46
1726.00	22442.62
1727.00	22469.14
1728.00	22357.58
1729.00	22236.65
1730.00	22156.29
1731.00	22160.97
1732.00	22182.04
1733.00	22080.61
1734.00	22020.54
1735.00	21962.81
1736.00	21830.18
1737.00	21676.48
1738.00	21511.86
1739.00	21488.46
1740.00	21451.79
1741.00	21380.01
1742.00	21298.09
1743.00	21266.89
1744.00	21259.09
1745.00	21247.38
1746.00	21304.34
1747.00	21180.29
1748.00	21150.64
1749.00	21120.99
1750.00	21147.52
1751.00	21226.32
1752.00	21173.27
1753.00	21253.62
1754.00	21166.24
1755.00	21060.92
1756.00	20940.77
1757.00	20903.32
1758.00	20837.01
1759.00	20764.45
1760.00	20600.62
1761.00	20465.64
1762.00	20391.53
1763.00	20326.77
1764.00	20421.95
1765.00	20405.57
1766.00	20469.55
1767.00	20360.32
1768.00	20263.58
1769.00	20237.05
1770.00	20215.21
1771.00	20296.35
1772.00	20182.44
1773.00	20108.32
1774.00	20091.16
1775.00	20109.88
1776.00	20166.06
1777.00	20105.20
1778.00	20164.50
1779.00	20171.52
1780.00	20088.82
1781.00	19932.78
1782.00	19740.08
1783.00	19625.39
1784.00	19606.67
1785.00	19609.01
1786.00	19566.10
1787.00	19470.92
1788.00	19396.80
1789.00	19364.03
1790.00	19301.62
1791.00	19211.12
1792.00	19252.47
1793.00	19168.21
1794.00	19099.55
1795.00	18829.61
1796.00	18728.19
1797.00	18705.56
1798.00	18689.18
1799.00	18733.65
1800.00	18689.18
1801.00	18725.07
1802.00	18665.77
1803.00	18611.94
1804.00	18503.50
1805.00	18391.15
1806.00	18372.43
1807.00	18431.72
1808.00	18422.36
1809.00	18390.37
1810.00	18318.59
1811.00	18269.44
1812.00	18189.08
1813.00	18074.40
1814.00	17987.02
1815.00	17940.21
1816.00	17855.17
1817.00	17869.21
1818.00	17872.33
1819.00	17870.77
1820.00	17743.60
1821.00	17528.27
1822.00	17513.45
1823.00	17523.59
1824.00	17557.92
1825.00	17514.23
1826.00	17523.59
1827.00	17543.10
1828.00	17497.06
1829.00	17507.21
1830.00	17385.50
1831.00	17366.77
1832.00	17300.46
1833.00	17264.57
1834.00	17171.73
1835.00	17096.05
1836.00	17020.38
1837.00	16915.05
1838.00	16794.12
1839.00	16886.97
1840.00	16908.03
1841.00	16961.86
1842.00	16833.13
1843.00	16773.84
1844.00	16566.31
1845.00	16568.65
1846.00	16383.75
1847.00	16326.80
1848.00	16130.97
1849.00	16166.86
1850.00	16100.55
1851.00	16063.88
1852.00	16038.13
1853.00	16031.11
1854.00	15992.88
1855.00	15959.33
1856.00	15871.95
1857.00	15875.85
1858.00	15779.11
1859.00	15805.64
1860.00	15778.33
1861.00	15740.88
1862.00	15616.83
1863.00	15534.14
1864.00	15382.78
1865.00	15438.95
1866.00	15428.03
1867.00	15484.20
1868.00	15286.82
1869.00	15177.59
1870.00	15156.53
1871.00	15225.18
1872.00	15199.44
1873.00	15172.13
1874.00	15143.27
1875.00	15004.39
1876.00	14958.36
1877.00	14889.71
1878.00	14871.76
1879.00	14763.32
1880.00	14623.67
1881.00	14568.27
1882.00	14491.82
1883.00	14452.81
1884.00	14466.07
1885.00	14317.06
1886.00	14206.27
1887.00	14035.41
1888.00	13950.37
1889.00	13946.47
1890.00	13961.30
1891.00	13903.56
1892.00	13873.92
1893.00	13880.94
1894.00	13958.96
1895.00	13937.11
1896.00	13766.25
1897.00	13682.77
1898.00	13496.31
1899.00	13486.17
1900.00	13436.24
1901.00	13469.00
1902.00	13284.10
1903.00	13049.27
1904.00	12570.24
1905.00	12028.79
1906.00	11211.17
1907.00	10284.31
1908.00	9431.58
1909.00	8812.12
1910.00	8396.28
1911.00	8136.48
1912.00	8040.52
1913.00	8333.09
1914.00	8735.66
1915.00	9299.73
1916.00	9761.59
1917.00	10105.65
1918.00	10405.24
1919.00	10460.63
1920.00	10473.90
1921.00	10218.78
1922.00	10047.14
1923.00	9869.26
1924.00	9839.61
1925.00	9785.00
1926.00	9775.64
1927.00	9731.95
1928.00	9734.29
1929.00	9835.71
1930.00	9857.56
1931.00	9997.99
1932.00	10124.38
1933.00	10278.07
1934.00	10384.96
1935.00	10349.85
1936.00	10384.18
1937.00	10331.90
1938.00	10329.56
1939.00	10303.04
1940.00	10414.60
1941.00	10483.26
1942.00	10580.78
1943.00	10485.60
1944.00	10524.61
1945.00	10551.14
1946.00	10618.23
1947.00	10535.53
1948.00	10406.80
1949.00	10340.49
1950.00	10307.72
1951.00	10243.74
1952.00	10247.65
1953.00	10214.88
1954.00	10217.22
1955.00	10097.07
1956.00	10029.98
1957.00	9931.67
1958.00	9821.67
1959.00	9829.47
1960.00	9755.35
1961.00	9744.43
1962.00	9622.72
1963.00	9621.94
1964.00	9561.09
1965.00	9518.96
1966.00	9468.25
1967.00	9508.82
1968.00	9566.55
1969.00	9616.48
1970.00	9569.67
1971.00	9505.70
1972.00	9419.10
1973.00	9391.01
1974.00	9321.57
1975.00	9323.91
1976.00	9341.08
1977.00	9372.29
1978.00	9381.65
1979.00	9396.47
1980.00	9442.50
1981.00	9508.04
1982.00	9538.46
1983.00	9419.88
1984.00	9342.64
1985.00	9248.24
1986.00	9266.96
1987.00	9198.31
1988.00	9092.20
1989.00	8977.51
1990.00	8854.25
1991.00	8766.09
1992.00	8749.70
1993.00	8664.66
1994.00	8633.46
1995.00	8517.99
1996.00	8476.64
1997.00	8432.95
1998.00	8420.47
1999.00	8407.20
2000.00	8368.98
2001.00	8319.04
2002.00	8361.95
2003.00	8333.87
2004.00	8311.24
2005.00	8176.27
2006.00	8155.21
2007.00	8079.53
2008.00	8067.05
2009.00	8007.75
2010.00	7979.67
2011.00	7920.37
2012.00	7883.70
2013.00	7819.73
2014.00	7753.41
2015.00	7654.33
2016.00	7677.74
2017.00	7672.28
2018.00	7648.87
2019.00	7534.96
2020.00	7499.86
2021.00	7475.67
2022.00	7460.07
2023.00	7427.30
2024.00	7459.29
2025.00	7472.55
2026.00	7438.22
2027.00	7337.58
2028.00	7317.29
2029.00	7305.59
2030.00	7350.84
2031.00	7369.57
2032.00	7419.50
2033.00	7461.63
2034.00	7399.99
2035.00	7360.98
2036.00	7240.06
2037.00	7248.64
2038.00	7211.19
2039.00	7211.19
2040.00	7233.04
2041.00	7213.53
2042.00	7230.70
2043.00	7142.53
2044.00	7065.30
2045.00	7021.61
2046.00	6969.34
2047.00	6906.92
>>>>>End Processed Spectral Data<<<<<
