SpectraSuite Data File
++++++++++++++++++++++++++++++++++++
Date: Thu Nov 16 13:32:46 EST 2017
User: cheriyan
Dark Spectrum Present: No
Reference Spectrum Present: No
Number of Sampled Component Spectra: 1
Spectrometers: USB2+H05261
Integration Time (usec): 90000 (USB2+H05261)
Spectra Averaged: 1 (USB2+H05261)
Boxcar Smoothing: 1 (USB2+H05261)
Correct for Electrical Dark: No (USB2+H05261)
Strobe/Lamp Enabled: No (USB2+H05261)
Correct for Detector Non-linearity: No (USB2+H05261)
Correct for Stray Light: No (USB2+H05261)
Number of Pixels in Processed Spectrum: 2048
>>>>>Begin Processed Spectral Data<<<<<
0.00	404.91
1.00	404.91
2.00	374.49
3.00	322.99
4.00	291.79
5.00	286.33
6.00	292.57
7.00	265.26
8.00	247.32
9.00	240.30
10.00	255.12
11.00	265.26
12.00	259.02
13.00	231.71
14.00	234.83
15.00	246.54
16.00	275.40
17.00	276.96
18.00	276.96
19.00	266.82
20.00	248.10
21.00	241.08
22.00	272.28
23.00	748.19
24.00	2433.38
25.00	4254.31
26.00	5704.67
27.00	5894.25
28.00	5782.68
29.00	5550.19
30.00	5324.72
31.00	5276.35
32.00	5275.57
33.00	5352.03
34.00	5295.85
35.00	5146.84
36.00	4899.52
37.00	4761.43
38.00	4743.49
39.00	4851.15
40.00	4954.13
41.00	4953.35
42.00	4937.75
43.00	4872.22
44.00	5029.03
45.00	5224.86
46.00	5518.20
47.00	5710.13
48.00	5852.90
49.00	5915.31
50.00	5951.20
51.00	5940.28
52.00	6008.94
53.00	6066.67
54.00	6171.21
55.00	6350.65
56.00	6642.44
57.00	6963.09
58.00	7214.31
59.00	7457.73
60.00	7565.39
61.00	7599.72
62.00	7442.12
63.00	7251.76
64.00	6950.61
65.00	6671.31
66.00	6431.01
67.00	6235.19
68.00	6123.62
69.00	6069.01
70.00	6242.21
71.00	6505.13
72.00	6848.41
73.00	7085.58
74.00	7148.00
75.00	7096.50
76.00	6844.51
77.00	6603.43
78.00	6230.51
79.00	5981.63
80.00	5665.66
81.00	5444.09
82.00	5204.57
83.00	5007.97
84.00	4812.14
85.00	4676.39
86.00	4606.95
87.00	4550.00
88.00	4574.19
89.00	4670.93
90.00	4983.00
91.00	5405.86
92.00	5859.92
93.00	6234.41
94.00	6497.33
95.00	6704.85
96.00	6811.74
97.00	6708.76
98.00	6541.02
99.00	6296.82
100.00	6240.65
101.00	6282.00
102.00	6506.69
103.00	6690.81
104.00	6835.14
105.00	6783.65
106.00	6727.48
107.00	6654.14
108.00	6722.80
109.00	6757.13
110.00	6787.55
111.00	6746.98
112.00	6718.12
113.00	6718.90
114.00	6791.45
115.00	6966.21
116.00	7224.45
117.00	7620.00
118.00	8028.82
119.00	8364.29
120.00	8603.81
121.00	8670.90
122.00	8705.23
123.00	8695.09
124.00	8865.95
125.00	9046.95
126.00	9286.47
127.00	9495.55
128.00	9689.82
129.00	9755.35
130.00	9596.98
131.00	9305.19
132.00	8894.82
133.00	8463.38
134.00	7867.32
135.00	7232.26
136.00	6427.11
137.00	5663.32
138.00	5029.81
139.00	4731.78
140.00	4964.28
141.00	5477.63
142.00	6267.17
143.00	7087.14
144.00	7885.26
145.00	8656.08
146.00	9259.16
147.00	9819.33
148.00	10104.87
149.00	10274.17
150.00	10311.62
151.00	10115.80
152.00	9668.75
153.00	8773.89
154.00	7843.14
155.00	6860.11
156.00	6186.82
157.00	5872.40
158.00	6160.29
159.00	6961.53
160.00	8101.37
161.00	9383.21
162.00	10621.35
163.00	11617.64
164.00	12214.48
165.00	12571.80
166.00	12911.18
167.00	13238.85
168.00	13634.40
169.00	13816.96
170.00	14025.27
171.00	14126.69
172.00	14246.06
173.00	14351.38
174.00	14320.18
175.00	14365.43
176.00	14444.23
177.00	14683.74
178.00	14913.89
179.00	15236.89
180.00	15425.69
181.00	15715.14
182.00	15780.67
183.00	15968.70
184.00	16017.07
185.00	16067.78
186.00	15889.12
187.00	15886.78
188.00	15691.73
189.00	15562.22
190.00	15362.50
191.00	15502.15
192.00	15771.31
193.00	15999.12
194.00	16063.10
195.00	15851.67
196.00	15573.92
197.00	15502.93
198.00	15669.11
199.00	15828.26
200.00	15831.38
201.00	15747.90
202.00	15829.04
203.00	15766.63
204.00	15749.46
205.00	15486.54
206.00	15190.86
207.00	15126.10
208.00	15259.51
209.00	15671.45
210.00	15904.72
211.00	15912.52
212.00	15846.21
213.00	16010.82
214.00	16311.19
215.00	16578.01
216.00	16818.31
217.00	17162.37
218.00	17512.67
219.00	17821.62
220.00	17901.98
221.00	17964.39
222.00	17519.69
223.00	16995.41
224.00	16248.00
225.00	15687.05
226.00	15414.77
227.00	15633.22
228.00	16102.89
229.00	16732.49
230.00	17313.72
231.00	17900.42
232.00	18357.60
233.00	18648.61
234.00	18785.14
235.00	18973.16
236.00	19031.68
237.00	19072.25
238.00	18962.24
239.00	18904.51
240.00	18735.99
241.00	18533.14
242.00	18423.92
243.00	18565.91
244.00	18870.18
245.00	19094.09
246.00	19249.35
247.00	19322.68
248.00	19444.39
249.00	19509.15
250.00	19580.92
251.00	19615.25
252.00	19648.02
253.00	19598.87
254.00	19614.47
255.00	19889.87
256.00	20248.75
257.00	20713.74
258.00	21060.92
259.00	21192.77
260.00	21058.58
261.00	20711.40
262.00	20393.87
263.00	20066.97
264.00	19962.43
265.00	19835.26
266.00	19935.12
267.00	20041.23
268.00	20169.18
269.00	20203.50
270.00	20180.10
271.00	20363.44
272.00	20804.24
273.00	21121.77
274.00	21071.84
275.00	20776.16
276.00	20428.98
277.00	20213.65
278.00	20068.53
279.00	20233.93
280.00	20808.92
281.00	21356.61
282.00	21858.26
283.00	22134.45
284.00	22313.89
285.00	22258.49
286.00	22222.61
287.00	21907.41
288.00	21636.69
289.00	21100.71
290.00	20597.49
291.00	20077.90
292.00	19888.31
293.00	20247.19
294.00	20645.09
295.00	21004.75
296.00	21050.00
297.00	21093.69
298.00	21113.97
299.00	21074.96
300.00	21248.94
301.00	21105.39
302.00	21046.88
303.00	20783.18
304.00	20739.49
305.00	20808.92
306.00	20735.59
307.00	20636.50
308.00	20305.71
309.00	20269.04
310.00	20453.94
311.00	20798.00
312.00	20986.80
313.00	20699.70
314.00	20133.29
315.00	19392.90
316.00	19179.13
317.00	19285.23
318.00	19707.31
319.00	19958.53
320.00	20347.06
321.00	20415.71
322.00	20408.69
323.00	20098.18
324.00	19892.99
325.00	19687.03
326.00	19527.09
327.00	19370.27
328.00	18882.66
329.00	18291.29
330.00	17362.87
331.00	16460.99
332.00	15544.28
333.00	15008.30
334.00	14882.69
335.00	15138.58
336.00	15869.61
337.00	17143.64
338.00	18956.00
339.00	20805.02
340.00	22345.09
341.00	22911.50
342.00	22654.83
343.00	21866.06
344.00	21440.09
345.00	21483.78
346.00	22084.51
347.00	22692.27
348.00	23140.88
349.00	23016.83
350.00	22221.05
351.00	21158.44
352.00	20361.10
353.00	20292.44
354.00	20867.44
355.00	21518.89
356.00	22300.62
357.00	22660.29
358.00	23008.25
359.00	23129.95
360.00	23391.31
361.00	23798.57
362.00	24121.56
363.00	24570.16
364.00	24721.52
365.00	24866.63
366.00	24702.01
367.00	24510.09
368.00	24136.38
369.00	23808.71
370.00	23679.20
371.00	23452.95
372.00	23172.08
373.00	22574.47
374.00	22150.05
375.00	21777.12
376.00	21686.62
377.00	21726.41
378.00	22166.43
379.00	22839.73
380.00	23438.90
381.00	24024.82
382.00	24388.38
383.00	24723.86
384.00	24648.96
385.00	24373.56
386.00	24110.64
387.00	24234.69
388.00	24672.37
389.00	25462.69
390.00	26203.08
391.00	26526.07
392.00	26834.24
393.00	27054.25
394.00	27591.02
395.00	27835.99
396.00	28050.54
397.00	28297.86
398.00	28510.85
399.00	28665.32
400.00	28439.85
401.00	28317.36
402.00	28242.46
403.00	28487.44
404.00	28872.07
405.00	28996.12
406.00	29159.95
407.00	28868.95
408.00	28592.76
409.00	28540.49
410.00	28610.71
411.00	28902.50
412.00	28347.01
413.00	27729.89
414.00	26911.48
415.00	26523.73
416.00	26525.29
417.00	26881.05
418.00	27360.86
419.00	27745.49
420.00	28035.72
421.00	28453.89
422.00	28944.62
423.00	29433.02
424.00	29709.20
425.00	29886.30
426.00	29845.73
427.00	29599.19
428.00	29289.46
429.00	29081.16
430.00	29159.17
431.00	29132.65
432.00	28952.43
433.00	28958.67
434.00	29096.76
435.00	29443.16
436.00	29609.34
437.00	29891.76
438.00	30178.09
439.00	30600.16
440.00	31143.95
441.00	31580.07
442.00	31810.22
443.00	31787.60
444.00	31693.97
445.00	31444.32
446.00	31162.67
447.00	31008.20
448.00	30937.20
449.00	30627.47
450.00	30342.70
451.00	29908.93
452.00	29436.14
453.00	28756.60
454.00	28264.31
455.00	28226.86
456.00	28521.77
457.00	29108.46
458.00	29621.04
459.00	30147.66
460.00	30512.78
461.00	30629.81
462.00	30617.33
463.00	30347.39
464.00	30322.42
465.00	30135.96
466.00	30130.50
467.00	30228.02
468.00	30465.19
469.00	31048.77
470.00	31361.62
471.00	31779.79
472.00	31814.12
473.00	31912.42
474.00	32045.05
475.00	32112.15
476.00	32301.73
477.00	32449.19
478.00	32645.79
479.00	32772.96
480.00	32263.50
481.00	31967.82
482.00	31469.28
483.00	31275.02
484.00	31381.12
485.00	31522.34
486.00	31875.76
487.00	31757.17
488.00	31836.75
489.00	31752.49
490.00	31598.01
491.00	31434.96
492.00	31499.71
493.00	31674.47
494.00	31902.28
495.00	32109.81
496.00	32345.42
497.00	32714.45
498.00	33106.10
499.00	33420.51
500.00	33205.18
501.00	33087.37
502.00	33160.71
503.00	33362.00
504.00	33612.43
505.00	33703.71
506.00	33908.90
507.00	33925.28
508.00	33896.42
509.00	33844.15
510.00	33688.89
511.00	33532.86
512.00	33500.87
513.00	33502.43
514.00	33432.99
515.00	33192.70
516.00	32950.84
517.00	32519.40
518.00	32449.97
519.00	32122.29
520.00	32481.95
521.00	32525.64
522.00	32733.17
523.00	32872.82
524.00	33088.15
525.00	33393.20
526.00	33122.48
527.00	32672.32
528.00	32015.41
529.00	31533.26
530.00	31269.56
531.00	31456.80
532.00	31803.98
533.00	32150.38
534.00	32314.22
535.00	32577.92
536.00	32417.20
537.00	32306.41
538.00	32212.01
539.00	32503.80
540.00	32737.85
541.00	32882.19
542.00	33031.98
543.00	33276.96
544.00	33138.08
545.00	32882.19
546.00	32236.98
547.00	31974.84
548.00	31693.19
549.00	31800.86
550.00	31743.91
551.00	31820.36
552.00	31988.88
553.00	32263.50
554.00	32697.28
555.00	33058.51
556.00	33545.34
557.00	34075.86
558.00	34594.68
559.00	34964.48
560.00	35079.95
561.00	35026.12
562.00	34575.95
563.00	34112.53
564.00	33741.94
565.00	33793.43
566.00	34103.95
567.00	34177.28
568.00	34433.96
569.00	34490.91
570.00	35143.92
571.00	35556.64
572.00	35933.46
573.00	35910.06
574.00	35754.02
575.00	35717.36
576.00	35910.84
577.00	35897.58
578.00	35891.34
579.00	35590.19
580.00	35605.79
581.00	35550.40
582.00	35467.70
583.00	35472.38
584.00	35615.93
585.00	36028.65
586.00	36651.23
587.00	37013.23
588.00	37365.09
589.00	37762.98
590.00	38271.66
591.00	38708.56
592.00	38894.24
593.00	38954.32
594.00	38866.94
595.00	38823.25
596.00	38952.76
597.00	39229.72
598.00	39710.31
599.00	40189.34
600.00	40655.11
601.00	40651.20
602.00	40752.63
603.00	40764.33
604.00	41004.63
605.00	41483.66
606.00	41601.46
607.00	41801.19
608.00	41741.89
609.00	42217.02
610.00	42493.99
611.00	42753.79
612.00	43009.68
613.00	43484.81
614.00	43551.91
615.00	43477.79
616.00	43300.69
617.00	43421.62
618.00	43730.57
619.00	43965.40
620.00	44167.47
621.00	44274.35
622.00	44545.86
623.00	44961.69
624.00	44751.82
625.00	44506.07
626.00	44108.96
627.00	44250.95
628.00	44525.57
629.00	45187.16
630.00	45715.34
631.00	45669.31
632.00	44739.34
633.00	43819.51
634.00	42339.51
635.00	40606.73
636.00	38638.34
637.00	38008.74
638.00	38567.35
639.00	39854.64
640.00	40970.30
641.00	41928.36
642.00	42819.32
643.00	43813.27
644.00	44824.38
645.00	45858.12
646.00	46650.00
647.00	47338.12
648.00	47794.52
649.00	48023.11
650.00	47828.07
651.00	47569.05
652.00	46993.28
653.00	47105.62
654.00	47409.89
655.00	48617.61
656.00	49546.80
657.00	50446.35
658.00	50868.42
659.00	51218.72
660.00	51266.31
661.00	51339.65
662.00	51182.84
663.00	51011.98
664.00	50879.35
665.00	50853.60
666.00	50922.26
667.00	50645.29
668.00	50264.56
669.00	49726.24
670.00	49424.31
671.00	49443.82
672.00	49927.53
673.00	50731.89
674.00	51634.56
675.00	52271.96
676.00	52523.96
677.00	52331.26
678.00	52058.20
679.00	51837.40
680.00	51946.63
681.00	52288.35
682.00	52978.81
683.00	53588.13
684.00	54103.82
685.00	54430.72
686.00	54623.42
687.00	54718.60
688.00	54425.26
689.00	54021.90
690.00	53522.59
691.00	53416.49
692.00	53553.02
693.00	54078.08
694.00	54451.00
695.00	54783.36
696.00	54822.37
697.00	54891.02
698.00	54976.84
699.00	55103.23
700.00	55336.51
701.00	55455.09
702.00	55366.15
703.00	54972.16
704.00	54429.16
705.00	53867.43
706.00	53783.17
707.00	53983.68
708.00	54527.46
709.00	54873.08
710.00	55199.19
711.00	55439.49
712.00	55497.22
713.00	55550.27
714.00	55391.90
715.00	55152.38
716.00	54777.12
717.00	54443.98
718.00	54159.22
719.00	54110.06
720.00	54223.19
721.00	54220.07
722.00	54025.03
723.00	53709.83
724.00	53638.06
725.00	53592.03
726.00	53703.59
727.00	53947.79
728.00	54270.00
729.00	54530.58
730.00	54664.77
731.00	54901.95
732.00	55105.57
733.00	55341.97
734.00	55307.64
735.00	55132.88
736.00	54606.26
737.00	54151.41
738.00	53824.52
739.00	53982.12
740.00	54317.59
741.00	54905.07
742.00	55238.98
743.00	55402.82
744.00	55533.89
745.00	55801.49
746.00	56119.02
747.00	56432.66
748.00	56740.05
749.00	56894.52
750.00	56749.41
751.00	56528.62
752.00	56410.03
753.00	56183.00
754.00	56062.07
755.00	55899.79
756.00	55933.34
757.00	55727.38
758.00	55575.24
759.00	55297.50
760.00	55036.14
761.00	54940.17
762.00	55128.20
763.00	55549.49
764.00	55915.40
765.00	56256.34
766.00	56704.94
767.00	57016.23
768.00	57038.08
769.00	56790.76
770.00	56655.79
771.00	56481.03
772.00	56504.43
773.00	56334.35
774.00	56413.15
775.00	56299.25
776.00	56354.64
777.00	56374.14
778.00	56500.53
779.00	56797.00
780.00	57043.54
781.00	57417.24
782.00	57521.79
783.00	57514.76
784.00	57141.06
785.00	56729.90
786.00	56433.44
787.00	56243.07
788.00	56158.81
789.00	56275.84
790.00	56405.35
791.00	56461.52
792.00	56356.98
793.00	56150.23
794.00	55948.95
795.00	55727.38
796.00	55745.32
797.00	55787.45
798.00	55899.01
799.00	56059.73
800.00	56222.79
801.00	56389.75
802.00	56438.12
803.00	56520.82
804.00	56572.31
805.00	56768.91
806.00	56891.40
807.00	56654.23
808.00	55942.70
809.00	54737.33
810.00	53506.21
811.00	52154.16
812.00	51175.81
813.00	50739.69
814.00	51183.62
815.00	52317.21
816.00	53568.62
817.00	54506.40
818.00	54491.57
819.00	53905.66
820.00	53140.30
821.00	53002.21
822.00	53327.55
823.00	54026.59
824.00	54648.39
825.00	55230.40
826.00	55511.27
827.00	55853.76
828.00	56140.87
829.00	56495.85
830.00	56637.06
831.00	56612.88
832.00	56493.51
833.00	56186.90
834.00	56178.32
835.00	56230.59
836.00	56520.82
837.00	56732.25
838.00	56897.64
839.00	57020.13
840.00	56995.95
841.00	57119.21
842.00	57144.18
843.00	56972.54
844.00	56519.26
845.00	56148.67
846.00	55847.52
847.00	55794.47
848.00	55884.19
849.00	56243.07
850.00	56556.70
851.00	56905.44
852.00	57215.96
853.00	57618.53
854.00	57770.66
855.00	57932.16
856.00	57819.03
857.00	57756.62
858.00	57670.02
859.00	57514.76
860.00	57450.79
861.00	57298.65
862.00	57398.52
863.00	57477.32
864.00	57278.37
865.00	56825.09
866.00	55957.53
867.00	55112.59
868.00	54142.83
869.00	53643.52
870.00	53312.72
871.00	53616.21
872.00	53957.93
873.00	54811.45
874.00	55463.67
875.00	56097.96
876.00	56395.21
877.00	56555.92
878.00	56690.90
879.00	56849.27
880.00	57180.07
881.00	57575.62
882.00	57799.53
883.00	57954.78
884.00	57747.26
885.00	57427.38
886.00	57001.41
887.00	56675.29
888.00	56638.62
889.00	56691.68
890.00	57040.42
891.00	57318.94
892.00	57574.06
893.00	57672.36
894.00	57722.29
895.00	57769.10
896.00	57711.37
897.00	57581.86
898.00	57328.30
899.00	57116.09
900.00	56821.97
901.00	56431.88
902.00	55893.55
903.00	55334.17
904.00	55012.73
905.00	54979.18
906.00	55254.59
907.00	55650.92
908.00	55944.26
909.00	56388.19
910.00	56477.13
911.00	56574.65
912.00	56278.96
913.00	56152.57
914.00	56059.73
915.00	56150.23
916.00	56326.55
917.00	56527.06
918.00	56761.89
919.00	56903.88
920.00	57121.55
921.00	57277.59
922.00	57479.66
923.00	57379.79
924.00	57129.36
925.00	56671.39
926.00	56328.11
927.00	55884.19
928.00	55512.05
929.00	55263.95
930.00	55231.18
931.00	55469.92
932.00	55826.46
933.00	56210.31
934.00	56358.54
935.00	56327.33
936.00	56313.29
937.00	56335.91
938.00	56300.03
939.00	56229.03
940.00	56114.34
941.00	55858.45
942.00	55602.55
943.00	55309.98
944.00	55120.40
945.00	54938.61
946.00	54862.16
947.00	54791.16
948.00	54744.35
949.00	54543.84
950.00	54376.89
951.00	54209.93
952.00	54056.23
953.00	54066.38
954.00	54234.89
955.00	54649.17
956.00	54897.27
957.00	55051.74
958.00	55162.53
959.00	55356.79
960.00	55285.01
961.00	55035.36
962.00	54944.86
963.00	54950.32
964.00	55055.64
965.00	54861.38
966.00	54832.51
967.00	54836.41
968.00	54951.88
969.00	55178.91
970.00	55523.75
971.00	55962.21
972.00	56045.69
973.00	55823.34
974.00	55535.45
975.00	55410.62
976.00	55414.52
977.00	55349.77
978.00	55266.29
979.00	55218.70
980.00	55175.79
981.00	55305.30
982.00	55213.24
983.00	55187.49
984.00	54994.01
985.00	54990.11
986.00	54940.96
987.00	54881.66
988.00	54989.33
989.00	54961.24
990.00	54896.48
991.00	54387.81
992.00	54047.65
993.00	53819.06
994.00	54057.01
995.00	54405.75
996.00	54701.44
997.00	54900.39
998.00	55013.51
999.00	55092.31
1000.00	55223.38
1001.00	55233.52
1002.00	55169.55
1003.00	54920.67
1004.00	54938.61
1005.00	54937.83
1006.00	55014.29
1007.00	54820.81
1008.00	54769.32
1009.00	54506.40
1010.00	54435.40
1011.00	54322.27
1012.00	54530.58
1013.00	54461.15
1014.00	54451.78
1015.00	54285.61
1016.00	54397.17
1017.00	54604.70
1018.00	54896.48
1019.00	54993.23
1020.00	54825.49
1021.00	54510.30
1022.00	54177.94
1023.00	53914.24
1024.00	53770.69
1025.00	53895.52
1026.00	54145.95
1027.00	54263.76
1028.00	54382.35
1029.00	54268.44
1030.00	54341.78
1031.00	54472.07
1032.00	54660.09
1033.00	54788.82
1034.00	54727.97
1035.00	54749.03
1036.00	54716.26
1037.00	54724.07
1038.00	54639.03
1039.00	54525.90
1040.00	54272.34
1041.00	54120.99
1042.00	53979.78
1043.00	53939.21
1044.00	53876.79
1045.00	53768.35
1046.00	53504.65
1047.00	53268.25
1048.00	53043.56
1049.00	52955.40
1050.00	53104.41
1051.00	53203.50
1052.00	53396.20
1053.00	53379.04
1054.00	53512.45
1055.00	53386.84
1056.00	53174.63
1057.00	52841.49
1058.00	52435.02
1059.00	51938.05
1060.00	51740.66
1061.00	51566.68
1062.00	51745.34
1063.00	51763.29
1064.00	52002.02
1065.00	52115.15
1066.00	52144.80
1067.00	52136.21
1068.00	51989.54
1069.00	52067.56
1070.00	52403.81
1071.00	52988.95
1072.00	53340.03
1073.00	53409.46
1074.00	53174.63
1075.00	52839.15
1076.00	52458.43
1077.00	52112.81
1078.00	51956.77
1079.00	51987.98
1080.00	51999.68
1081.00	52082.38
1082.00	52125.29
1083.00	52360.12
1084.00	52579.35
1085.00	52767.38
1086.00	52772.06
1087.00	52671.42
1088.00	52286.79
1089.00	51987.98
1090.00	51744.56
1091.00	51733.64
1092.00	51840.53
1093.00	51808.54
1094.00	51978.62
1095.00	51862.37
1096.00	51874.07
1097.00	51697.75
1098.00	51682.93
1099.00	51569.80
1100.00	51360.72
1101.00	50902.75
1102.00	50525.14
1103.00	50234.92
1104.00	50284.07
1105.00	50382.37
1106.00	50593.02
1107.00	50797.43
1108.00	51001.05
1109.00	51079.07
1110.00	51370.08
1111.00	51382.56
1112.00	51500.37
1113.00	51335.75
1114.00	51326.39
1115.00	51124.32
1116.00	50668.70
1117.00	50263.78
1118.00	49853.41
1119.00	49696.59
1120.00	49436.02
1121.00	49435.24
1122.00	49418.07
1123.00	49709.86
1124.00	49804.26
1125.00	49916.61
1126.00	49791.78
1127.00	49754.33
1128.00	49565.52
1129.00	49272.18
1130.00	48843.08
1131.00	48487.32
1132.00	48124.54
1133.00	47814.02
1134.00	47577.63
1135.00	47572.17
1136.00	47749.27
1137.00	48106.59
1138.00	48442.85
1139.00	48900.81
1140.00	49100.54
1141.00	49401.69
1142.00	49407.93
1143.00	49462.54
1144.00	49431.33
1145.00	49340.05
1146.00	49288.56
1147.00	49137.21
1148.00	49235.51
1149.00	49116.14
1150.00	48907.83
1151.00	48615.27
1152.00	48647.25
1153.00	48673.78
1154.00	48556.75
1155.00	48258.73
1156.00	48057.44
1157.00	47977.08
1158.00	47725.86
1159.00	47381.80
1160.00	47104.84
1161.00	47114.20
1162.00	47090.02
1163.00	47112.64
1164.00	47021.36
1165.00	47047.11
1166.00	46897.31
1167.00	47147.75
1168.00	47225.77
1169.00	47501.17
1170.00	47399.75
1171.00	47384.93
1172.00	47170.38
1173.00	46988.60
1174.00	46972.99
1175.00	46985.47
1176.00	46684.33
1177.00	46346.51
1178.00	45865.92
1179.00	45698.18
1180.00	45496.89
1181.00	45550.73
1182.00	45616.26
1183.00	45759.81
1184.00	45819.11
1185.00	45957.98
1186.00	46046.92
1187.00	46380.84
1188.00	46571.98
1189.00	46760.00
1190.00	46623.47
1191.00	46664.82
1192.00	46566.52
1193.00	46457.29
1194.00	46445.59
1195.00	46490.06
1196.00	46595.38
1197.00	46506.44
1198.00	46528.29
1199.00	46688.23
1200.00	46793.55
1201.00	47061.93
1202.00	47045.55
1203.00	47152.43
1204.00	47078.32
1205.00	47137.61
1206.00	47019.02
1207.00	47108.74
1208.00	47080.66
1209.00	47094.70
1210.00	46899.65
1211.00	46854.40
1212.00	46930.86
1213.00	46901.22
1214.00	46883.27
1215.00	46754.54
1216.00	46554.04
1217.00	46422.19
1218.00	46204.52
1219.00	46333.24
1220.00	46245.08
1221.00	46050.82
1222.00	45677.11
1223.00	45290.15
1224.00	44938.29
1225.00	44518.55
1226.00	44328.19
1227.00	44361.73
1228.00	44502.95
1229.00	44645.72
1230.00	44751.04
1231.00	44993.68
1232.00	45089.64
1233.00	45277.66
1234.00	45176.24
1235.00	45141.13
1236.00	44978.86
1237.00	44689.41
1238.00	44580.18
1239.00	44424.93
1240.00	44385.14
1241.00	43937.32
1242.00	43127.49
1243.00	42232.63
1244.00	41024.13
1245.00	39956.85
1246.00	38937.93
1247.00	38500.25
1248.00	38115.62
1249.00	38088.32
1250.00	38353.58
1251.00	39139.22
1252.00	40094.94
1253.00	41029.59
1254.00	41848.00
1255.00	42372.28
1256.00	42663.28
1257.00	42788.89
1258.00	42857.55
1259.00	42683.57
1260.00	42526.75
1261.00	42387.10
1262.00	42440.15
1263.00	42420.65
1264.00	42458.88
1265.00	42386.32
1266.00	42218.58
1267.00	42238.09
1268.00	42185.04
1269.00	42372.28
1270.00	42151.49
1271.00	42142.91
1272.00	42176.45
1273.00	42341.07
1274.00	42416.75
1275.00	42359.80
1276.00	42252.91
1277.00	41942.40
1278.00	41624.87
1279.00	41228.54
1280.00	40900.86
1281.00	40897.74
1282.00	40882.92
1283.00	41070.94
1284.00	40918.81
1285.00	41137.26
1286.00	41308.11
1287.00	41376.77
1288.00	41514.86
1289.00	41766.86
1290.00	42071.91
1291.00	42037.58
1292.00	41836.30
1293.00	41734.09
1294.00	41835.52
1295.00	41844.88
1296.00	41919.77
1297.00	41624.87
1298.00	41471.95
1299.00	41205.91
1300.00	41152.08
1301.00	41297.19
1302.00	41256.62
1303.00	41233.22
1304.00	40940.65
1305.00	40918.03
1306.00	40922.71
1307.00	40835.33
1308.00	40975.76
1309.00	40882.92
1310.00	41107.61
1311.00	40968.74
1312.00	41024.13
1313.00	40969.52
1314.00	40890.72
1315.00	40974.98
1316.00	40900.08
1317.00	40961.72
1318.00	40637.16
1319.00	40522.48
1320.00	40339.91
1321.00	40386.72
1322.00	40304.81
1323.00	40141.75
1324.00	40091.04
1325.00	39992.73
1326.00	39974.79
1327.00	39860.88
1328.00	39655.70
1329.00	39536.33
1330.00	39568.32
1331.00	39678.32
1332.00	39854.64
1333.00	39864.00
1334.00	40097.28
1335.00	40282.18
1336.00	40484.25
1337.00	40576.31
1338.00	40687.09
1339.00	40641.06
1340.00	40669.93
1341.00	40495.95
1342.00	40499.85
1343.00	40460.06
1344.00	40506.09
1345.00	40508.43
1346.00	40358.64
1347.00	40321.19
1348.00	40041.10
1349.00	39972.45
1350.00	39719.67
1351.00	39812.51
1352.00	39658.04
1353.00	39732.93
1354.00	39433.35
1355.00	39466.89
1356.00	39276.53
1357.00	39314.76
1358.00	39257.81
1359.00	39345.19
1360.00	39645.55
1361.00	39699.39
1362.00	39610.45
1363.00	39310.08
1364.00	39103.33
1365.00	38927.79
1366.00	38912.19
1367.00	38856.01
1368.00	38841.97
1369.00	38557.99
1370.00	38456.56
1371.00	38364.50
1372.00	38331.73
1373.00	38146.05
1374.00	38084.42
1375.00	38138.25
1376.00	38165.56
1377.00	38069.59
1378.00	38011.86
1379.00	37801.99
1380.00	37624.89
1381.00	37368.99
1382.00	37340.91
1383.00	37316.72
1384.00	37265.23
1385.00	37301.90
1386.00	37318.28
1387.00	37351.83
1388.00	37541.41
1389.00	37563.26
1390.00	37720.85
1391.00	37479.78
1392.00	37299.56
1393.00	37032.74
1394.00	36838.47
1395.00	36827.55
1396.00	36881.38
1397.00	36892.30
1398.00	36881.38
1399.00	36782.30
1400.00	36797.90
1401.00	36637.97
1402.00	36207.31
1403.00	35856.23
1404.00	35534.01
1405.00	35551.96
1406.00	35463.80
1407.00	35597.99
1408.00	35670.54
1409.00	35829.70
1410.00	36078.58
1411.00	36149.57
1412.00	36140.21
1413.00	35996.66
1414.00	35932.68
1415.00	35880.41
1416.00	35548.84
1417.00	35161.09
1418.00	34721.07
1419.00	34421.48
1420.00	34251.40
1421.00	34170.26
1422.00	34127.35
1423.00	34042.31
1424.00	34202.25
1425.00	34286.51
1426.00	34553.33
1427.00	34503.40
1428.00	34714.05
1429.00	34802.99
1430.00	35121.30
1431.00	35204.00
1432.00	35424.01
1433.00	35446.63
1434.00	35424.01
1435.00	35243.01
1436.00	35115.84
1437.00	35026.12
1438.00	34881.00
1439.00	34673.48
1440.00	34466.73
1441.00	34469.85
1442.00	34549.43
1443.00	34568.15
1444.00	34623.54
1445.00	34597.80
1446.00	34726.53
1447.00	34626.67
1448.00	34627.45
1449.00	34716.39
1450.00	34812.35
1451.00	34828.73
1452.00	34566.59
1453.00	34274.02
1454.00	33939.33
1455.00	33698.25
1456.00	33515.69
1457.00	33452.50
1458.00	33456.40
1459.00	33535.98
1460.00	33663.14
1461.00	33705.27
1462.00	33529.73
1463.00	33210.64
1464.00	32899.35
1465.00	32658.27
1466.00	32552.95
1467.00	32595.08
1468.00	32714.45
1469.00	32747.22
1470.00	32766.72
1471.00	32768.28
1472.00	32581.04
1473.00	32283.79
1474.00	32002.92
1475.00	31946.75
1476.00	31821.14
1477.00	31804.76
1478.00	31657.31
1479.00	31607.37
1480.00	31292.96
1481.00	31151.75
1482.00	31176.72
1483.00	31268.78
1484.00	31363.18
1485.00	31250.05
1486.00	31328.85
1487.00	31395.95
1488.00	31362.40
1489.00	31323.39
1490.00	31300.76
1491.00	31282.82
1492.00	31137.71
1493.00	30710.17
1494.00	30275.61
1495.00	29788.78
1496.00	29267.62
1497.00	28904.06
1498.00	28598.23
1499.00	28531.91
1500.00	28853.34
1501.00	29187.26
1502.00	29609.34
1503.00	29658.49
1504.00	29664.73
1505.00	29660.05
1506.00	29564.87
1507.00	29513.38
1508.00	29406.49
1509.00	29318.33
1510.00	29141.23
1511.00	29001.58
1512.00	28956.33
1513.00	29074.13
1514.00	29110.80
1515.00	29138.89
1516.00	29248.11
1517.00	29178.68
1518.00	29177.90
1519.00	29016.40
1520.00	28992.22
1521.00	28749.58
1522.00	28499.92
1523.00	28467.16
1524.00	28590.42
1525.00	28755.04
1526.00	28803.41
1527.00	29079.60
1528.00	29330.81
1529.00	29436.92
1530.00	29265.28
1531.00	29184.14
1532.00	29180.24
1533.00	29110.80
1534.00	28903.28
1535.00	28777.67
1536.00	28709.79
1537.00	28698.09
1538.00	28593.54
1539.00	28655.18
1540.00	28693.41
1541.00	28865.05
1542.00	28829.94
1543.00	29002.36
1544.00	29042.93
1545.00	29269.96
1546.00	29131.09
1547.00	28988.32
1548.00	28719.93
1549.00	28588.08
1550.00	28529.57
1551.00	28436.73
1552.00	28407.08
1553.00	28333.75
1554.00	28489.78
1555.00	28532.69
1556.00	28609.15
1557.00	28494.46
1558.00	28527.23
1559.00	28548.29
1560.00	28591.98
1561.00	28670.00
1562.00	28733.20
1563.00	28763.62
1564.00	28659.08
1565.00	28517.87
1566.00	28382.90
1567.00	28500.70
1568.00	28687.95
1569.00	28688.73
1570.00	28530.35
1571.00	28290.84
1572.00	28295.52
1573.00	28242.46
1574.00	28101.25
1575.00	27842.23
1576.00	27618.32
1577.00	27541.86
1578.00	27456.82
1579.00	27343.70
1580.00	27292.21
1581.00	27420.16
1582.00	27460.73
1583.00	27323.41
1584.00	27143.19
1585.00	27081.56
1586.00	27110.43
1587.00	27094.82
1588.00	27049.57
1589.00	27069.08
1590.00	26991.84
1591.00	26928.64
1592.00	26838.92
1593.00	26915.38
1594.00	27039.43
1595.00	26985.60
1596.00	27001.20
1597.00	26947.37
1598.00	27014.46
1599.00	26845.94
1600.00	26857.65
1601.00	26870.13
1602.00	26937.23
1603.00	26745.30
1604.00	26588.49
1605.00	26483.16
1606.00	26541.68
1607.00	26520.61
1608.00	26583.02
1609.00	26490.96
1610.00	26477.70
1611.00	26255.35
1612.00	26124.28
1613.00	26055.62
1614.00	26132.86
1615.00	26232.72
1616.00	26180.45
1617.00	26005.69
1618.00	25832.49
1619.00	25667.88
1620.00	25603.12
1621.00	25613.26
1622.00	25628.09
1623.00	25513.40
1624.00	25372.97
1625.00	25129.55
1626.00	25100.69
1627.00	24929.05
1628.00	24881.45
1629.00	24851.81
1630.00	24845.57
1631.00	24795.64
1632.00	24681.73
1633.00	24552.22
1634.00	24637.26
1635.00	24571.72
1636.00	24680.17
1637.00	24683.29
1638.00	24746.48
1639.00	24638.04
1640.00	24320.51
1641.00	23991.27
1642.00	23601.18
1643.00	23417.84
1644.00	23319.54
1645.00	23486.50
1646.00	23833.68
1647.00	24280.72
1648.00	24745.70
1649.00	24932.17
1650.00	24985.22
1651.00	24822.94
1652.00	24858.05
1653.00	24818.26
1654.00	24750.38
1655.00	24389.16
1656.00	24049.00
1657.00	23737.71
1658.00	23617.57
1659.00	23616.79
1660.00	23785.30
1661.00	23848.50
1662.00	24000.63
1663.00	24125.46
1664.00	24274.48
1665.00	24348.59
1666.00	24365.76
1667.00	24435.19
1668.00	24336.89
1669.00	24203.48
1670.00	24065.39
1671.00	24094.25
1672.00	24074.75
1673.00	24027.94
1674.00	23973.33
1675.00	23878.15
1676.00	23779.84
1677.00	23534.09
1678.00	23249.32
1679.00	23025.41
1680.00	22978.60
1681.00	23047.26
1682.00	22972.36
1683.00	22677.45
1684.00	22168.77
1685.00	21782.59
1686.00	21102.27
1687.00	20361.10
1688.00	19410.84
1689.00	18660.31
1690.00	18320.15
1691.00	18485.55
1692.00	19112.81
1693.00	19791.57
1694.00	20417.27
1695.00	20924.39
1696.00	21369.87
1697.00	21729.53
1698.00	22079.83
1699.00	22375.52
1700.00	22495.67
1701.00	22522.98
1702.00	22550.28
1703.00	22718.02
1704.00	22870.93
1705.00	22836.61
1706.00	22750.01
1707.00	22533.90
1708.00	22461.34
1709.00	22427.79
1710.00	22459.78
1711.00	22423.11
1712.00	22310.77
1713.00	22248.35
1714.00	22368.50
1715.00	22391.12
1716.00	22510.49
1717.00	22511.27
1718.00	22556.52
1719.00	22563.54
1720.00	22508.93
1721.00	22490.99
1722.00	22462.90
1723.00	22451.98
1724.00	22437.16
1725.00	22359.92
1726.00	22393.47
1727.00	22415.31
1728.00	22406.73
1729.00	22261.62
1730.00	22213.24
1731.00	22172.68
1732.00	22084.51
1733.00	22009.62
1734.00	22007.28
1735.00	21955.01
1736.00	21863.72
1737.00	21598.46
1738.00	21532.15
1739.00	21479.10
1740.00	21401.86
1741.00	21306.68
1742.00	21236.46
1743.00	21185.75
1744.00	21203.69
1745.00	21025.81
1746.00	21132.70
1747.00	21082.77
1748.00	21169.37
1749.00	21133.48
1750.00	21152.20
1751.00	21181.07
1752.00	21216.96
1753.00	21245.04
1754.00	21243.48
1755.00	21226.32
1756.00	21094.47
1757.00	20939.21
1758.00	20820.63
1759.00	20861.19
1760.00	20766.01
1761.00	20602.18
1762.00	20567.85
1763.00	20585.01
1764.00	20556.14
1765.00	20447.70
1766.00	20422.73
1767.00	20443.80
1768.00	20414.93
1769.00	20353.30
1770.00	20253.44
1771.00	20137.19
1772.00	20063.07
1773.00	20110.66
1774.00	20184.78
1775.00	20234.71
1776.00	20177.76
1777.00	20063.07
1778.00	20072.43
1779.00	20058.39
1780.00	20037.33
1781.00	19878.95
1782.00	19768.94
1783.00	19644.12
1784.00	19598.09
1785.00	19642.56
1786.00	19623.83
1787.00	19572.34
1788.00	19378.08
1789.00	19355.45
1790.00	19314.10
1791.00	19236.86
1792.00	19147.92
1793.00	19145.58
1794.00	19183.03
1795.00	19034.02
1796.00	18876.42
1797.00	18791.38
1798.00	18741.45
1799.00	18640.03
1800.00	18505.84
1801.00	18487.89
1802.00	18485.55
1803.00	18510.52
1804.00	18462.93
1805.00	18473.85
1806.00	18448.10
1807.00	18487.11
1808.00	18409.87
1809.00	18416.12
1810.00	18338.88
1811.00	18352.92
1812.00	18280.36
1813.00	18278.80
1814.00	18143.83
1815.00	18033.83
1816.00	17899.64
1817.00	17887.15
1818.00	17824.74
1819.00	17832.54
1820.00	17785.73
1821.00	17802.11
1822.00	17716.30
1823.00	17660.12
1824.00	17629.70
1825.00	17624.23
1826.00	17655.44
1827.00	17614.09
1828.00	17598.49
1829.00	17574.30
1830.00	17393.30
1831.00	17329.33
1832.00	17167.83
1833.00	17198.26
1834.00	17099.95
1835.00	17010.23
1836.00	16879.16
1837.00	16835.47
1838.00	16853.42
1839.00	16883.84
1840.00	16862.78
1841.00	16821.43
1842.00	16799.59
1843.00	16721.57
1844.00	16582.70
1845.00	16479.71
1846.00	16343.18
1847.00	16343.18
1848.00	16191.05
1849.00	16239.42
1850.00	16132.53
1851.00	16155.16
1852.00	16047.49
1853.00	16085.72
1854.00	15981.18
1855.00	16012.38
1856.00	15823.58
1857.00	15979.62
1858.00	15828.26
1859.00	15857.91
1860.00	15704.21
1861.00	15692.51
1862.00	15569.24
1863.00	15460.02
1864.00	15354.69
1865.00	15280.58
1866.00	15233.77
1867.00	15182.28
1868.00	15255.61
1869.00	15098.02
1870.00	15073.83
1871.00	14977.87
1872.00	15045.74
1873.00	15034.82
1874.00	15057.45
1875.00	15082.41
1876.00	15035.60
1877.00	14891.27
1878.00	14758.64
1879.00	14623.67
1880.00	14608.84
1881.00	14597.92
1882.00	14622.89
1883.00	14465.29
1884.00	14188.33
1885.00	14089.24
1886.00	14027.61
1887.00	14065.84
1888.00	13926.19
1889.00	13829.45
1890.00	13828.67
1891.00	13852.85
1892.00	13895.76
1893.00	13891.08
1894.00	13961.30
1895.00	14001.08
1896.00	13891.08
1897.00	13704.62
1898.00	13453.40
1899.00	13524.40
1900.00	13520.49
1901.00	13571.99
1902.00	13339.49
1903.00	13050.05
1904.00	12617.05
1905.00	12006.17
1906.00	11115.20
1907.00	10228.92
1908.00	9376.19
1909.00	8799.63
1910.00	8325.29
1911.00	8107.62
1912.00	8122.44
1913.00	8452.45
1914.00	8862.83
1915.00	9384.77
1916.00	9823.23
1917.00	10150.12
1918.00	10367.01
1919.00	10362.33
1920.00	10327.22
1921.00	10143.88
1922.00	9973.80
1923.00	9870.04
1924.00	9857.56
1925.00	9859.12
1926.00	9785.00
1927.00	9627.40
1928.00	9638.33
1929.00	9679.68
1930.00	9863.80
1931.00	10012.03
1932.00	10068.98
1933.00	10148.56
1934.00	10159.49
1935.00	10351.41
1936.00	10367.79
1937.00	10370.13
1938.00	10357.65
1939.00	10417.72
1940.00	10536.31
1941.00	10587.02
1942.00	10574.54
1943.00	10568.30
1944.00	10537.09
1945.00	10579.22
1946.00	10568.30
1947.00	10516.03
1948.00	10461.41
1949.00	10359.21
1950.00	10427.87
1951.00	10381.84
1952.00	10383.40
1953.00	10226.58
1954.00	10211.76
1955.00	10143.88
1956.00	10111.11
1957.00	10029.98
1958.00	9987.85
1959.00	9881.74
1960.00	9728.83
1961.00	9593.86
1962.00	9533.00
1963.00	9447.18
1964.00	9424.56
1965.00	9397.25
1966.00	9454.98
1967.00	9411.29
1968.00	9444.84
1969.00	9453.42
1970.00	9497.89
1971.00	9458.10
1972.00	9423.78
1973.00	9413.63
1974.00	9461.23
1975.00	9381.65
1976.00	9298.17
1977.00	9210.01
1978.00	9350.44
1979.00	9490.09
1980.00	9559.53
1981.00	9519.74
1982.00	9484.63
1983.00	9528.32
1984.00	9584.49
1985.00	9534.56
1986.00	9351.22
1987.00	9167.88
1988.00	9068.02
1989.00	9035.25
1990.00	8900.28
1991.00	8798.85
1992.00	8728.64
1993.00	8780.91
1994.00	8738.00
1995.00	8677.93
1996.00	8638.14
1997.00	8534.37
1998.00	8468.06
1999.00	8363.51
2000.00	8369.76
2001.00	8362.73
2002.00	8360.39
2003.00	8349.47
2004.00	8234.00
2005.00	8191.88
2006.00	8124.78
2007.00	8085.77
2008.00	7962.50
2009.00	7886.05
2010.00	7872.00
2011.00	7903.21
2012.00	7849.38
2013.00	7835.33
2014.00	7801.79
2015.00	7797.88
2016.00	7738.59
2017.00	7626.25
2018.00	7539.65
2019.00	7541.99
2020.00	7510.00
2021.00	7485.03
2022.00	7431.98
2023.00	7399.21
2024.00	7430.42
2025.00	7353.18
2026.00	7321.20
2027.00	7293.11
2028.00	7300.13
2029.00	7378.15
2030.00	7391.41
2031.00	7467.87
2032.00	7449.93
2033.00	7402.33
2034.00	7353.18
2035.00	7303.25
2036.00	7297.01
2037.00	7279.85
2038.00	7279.07
2039.00	7212.75
2040.00	7128.49
2041.00	7077.00
2042.00	7126.15
2043.00	7131.61
2044.00	7084.80
2045.00	7075.44
2046.00	7073.10
2047.00	7068.42
>>>>>End Processed Spectral Data<<<<<
