SpectraSuite Data File
++++++++++++++++++++++++++++++++++++
Date: Thu Nov 16 13:32:52 EST 2017
User: cheriyan
Dark Spectrum Present: No
Reference Spectrum Present: No
Number of Sampled Component Spectra: 1
Spectrometers: USB2+H05261
Integration Time (usec): 90000 (USB2+H05261)
Spectra Averaged: 1 (USB2+H05261)
Boxcar Smoothing: 1 (USB2+H05261)
Correct for Electrical Dark: No (USB2+H05261)
Strobe/Lamp Enabled: No (USB2+H05261)
Correct for Detector Non-linearity: No (USB2+H05261)
Correct for Stray Light: No (USB2+H05261)
Number of Pixels in Processed Spectrum: 2048
>>>>>Begin Processed Spectral Data<<<<<
0.00	418.96
1.00	418.96
2.00	380.73
3.00	330.02
4.00	276.18
5.00	258.24
6.00	257.46
7.00	247.32
8.00	269.16
9.00	251.22
10.00	259.02
11.00	231.71
12.00	229.37
13.00	222.35
14.00	230.15
15.00	245.76
16.00	263.70
17.00	258.24
18.00	294.13
19.00	295.69
20.00	330.02
21.00	308.95
22.00	324.55
23.00	755.21
24.00	2420.11
25.00	4227.79
26.00	5596.22
27.00	5686.72
28.00	5515.86
29.00	5263.86
30.00	5107.05
31.00	5063.36
32.00	5179.61
33.00	5210.81
34.00	5179.61
35.00	5012.65
36.00	4778.59
37.00	4615.54
38.00	4585.89
39.00	4748.17
40.00	4816.82
41.00	4861.29
42.00	4773.13
43.00	4796.54
44.00	4830.09
45.00	5078.96
46.00	5343.44
47.00	5645.37
48.00	5734.31
49.00	5788.14
50.00	5703.89
51.00	5671.12
52.00	5734.31
53.00	5875.52
54.00	6008.16
55.00	6183.70
56.00	6386.54
57.00	6665.07
58.00	6944.37
59.00	7140.97
60.00	7289.99
61.00	7308.71
62.00	7247.86
63.00	7100.41
64.00	6796.14
65.00	6515.27
66.00	6221.92
67.00	6010.50
68.00	5891.13
69.00	5920.78
70.00	6129.86
71.00	6363.92
72.00	6614.35
73.00	6789.89
74.00	6925.65
75.00	6890.54
76.00	6741.52
77.00	6443.49
78.00	6141.57
79.00	5800.63
80.00	5565.01
81.00	5348.90
82.00	5188.97
83.00	4956.47
84.00	4799.66
85.00	4604.61
86.00	4538.30
87.00	4462.62
88.00	4511.77
89.00	4532.06
90.00	4778.59
91.00	5128.11
92.00	5600.12
93.00	6065.89
94.00	6406.83
95.00	6640.88
96.00	6573.00
97.00	6528.53
98.00	6413.07
99.00	6335.05
100.00	6229.73
101.00	6213.34
102.00	6297.60
103.00	6441.93
104.00	6517.61
105.00	6580.81
106.00	6509.81
107.00	6570.66
108.00	6546.48
109.00	6634.64
110.00	6544.14
111.00	6599.53
112.00	6605.77
113.00	6651.02
114.00	6687.69
115.00	6779.75
116.00	7077.00
117.00	7395.31
118.00	7765.90
119.00	8018.68
120.00	8248.05
121.00	8316.70
122.00	8424.37
123.00	8402.52
124.00	8512.53
125.00	8645.16
126.00	8917.44
127.00	9253.70
128.00	9467.47
129.00	9528.32
130.00	9341.86
131.00	9046.17
132.00	8674.03
133.00	8239.47
134.00	7695.68
135.00	6995.86
136.00	6195.40
137.00	5416.78
138.00	4849.59
139.00	4645.96
140.00	4861.29
141.00	5462.81
142.00	6208.66
143.00	7028.63
144.00	7769.02
145.00	8464.16
146.00	9074.26
147.00	9544.70
148.00	9836.49
149.00	10064.30
150.00	10085.37
151.00	9845.85
152.00	9266.96
153.00	8517.21
154.00	7672.28
155.00	6802.38
156.00	6148.59
157.00	5866.16
158.00	6094.76
159.00	6836.70
160.00	7919.59
161.00	9181.92
162.00	10224.24
163.00	11080.10
164.00	11688.64
165.00	12144.26
166.00	12577.26
167.00	12876.85
168.00	13174.88
169.00	13330.91
170.00	13545.46
171.00	13639.86
172.00	13760.79
173.00	13799.80
174.00	13875.48
175.00	13964.42
176.00	14096.27
177.00	14356.07
178.00	14713.39
179.00	14945.88
180.00	15042.62
181.00	15166.67
182.00	15360.16
183.00	15515.41
184.00	15508.39
185.00	15434.27
186.00	15446.76
187.00	15461.58
188.00	15303.98
189.00	15037.16
190.00	14888.93
191.00	15065.25
192.00	15396.82
193.00	15639.46
194.00	15715.14
195.00	15555.98
196.00	15288.38
197.00	15126.10
198.00	15240.79
199.00	15334.41
200.00	15390.58
201.00	15385.12
202.00	15325.05
203.00	15287.60
204.00	15093.33
205.00	15059.01
206.00	14926.38
207.00	15040.28
208.00	15170.57
209.00	15454.56
210.00	15525.55
211.00	15460.02
212.00	15364.84
213.00	15488.89
214.00	15853.23
215.00	16089.62
216.00	16453.19
217.00	16759.80
218.00	17046.90
219.00	17119.46
220.00	17132.72
221.00	17201.38
222.00	16931.44
223.00	16501.56
224.00	15851.67
225.00	15415.55
226.00	15130.78
227.00	15272.78
228.00	15663.65
229.00	16170.76
230.00	16763.70
231.00	17273.15
232.00	17823.18
233.00	18129.01
234.00	18325.61
235.00	18454.34
236.00	18618.18
237.00	18647.83
238.00	18544.06
239.00	18376.33
240.00	18285.05
241.00	18200.79
242.00	18146.17
243.00	18104.82
244.00	18391.93
245.00	18598.68
246.00	18864.72
247.00	18806.20
248.00	18803.86
249.00	18757.05
250.00	18863.94
251.00	18961.46
252.00	19096.43
253.00	19062.88
254.00	19072.25
255.00	19373.39
256.00	19748.66
257.00	20218.33
258.00	20374.36
259.00	20526.50
260.00	20463.30
261.00	20297.13
262.00	19853.20
263.00	19474.04
264.00	19282.11
265.00	19306.30
266.00	19431.13
267.00	19727.60
268.00	19811.85
269.00	19879.73
270.00	19777.53
271.00	19914.84
272.00	20198.82
273.00	20401.67
274.00	20466.42
275.00	20286.98
276.00	19971.79
277.00	19612.91
278.00	19459.99
279.00	19651.92
280.00	20325.99
281.00	20781.62
282.00	21304.34
283.00	21453.35
284.00	21687.40
285.00	21649.18
286.00	21641.37
287.00	21337.10
288.00	21067.16
289.00	20638.84
290.00	20283.08
291.00	19750.22
292.00	19490.42
293.00	19644.90
294.00	20052.93
295.00	20428.98
296.00	20571.75
297.00	20639.62
298.00	20724.66
299.00	20688.78
300.00	20740.27
301.00	20414.93
302.00	20372.02
303.00	20217.55
304.00	20287.76
305.00	20213.65
306.00	20010.02
307.00	20008.46
308.00	19855.54
309.00	19838.38
310.00	19932.78
311.00	20339.26
312.00	20487.49
313.00	20322.87
314.00	19663.62
315.00	19114.38
316.00	18647.83
317.00	18573.71
318.00	18955.22
319.00	19289.92
320.00	19782.21
321.00	19832.14
322.00	19833.70
323.00	19557.52
324.00	19268.85
325.00	19078.49
326.00	18994.23
327.00	18982.52
328.00	18605.70
329.00	17866.09
330.00	16932.22
331.00	15996.00
332.00	15280.58
333.00	14679.06
334.00	14513.66
335.00	14745.38
336.00	15458.46
337.00	16553.05
338.00	18190.64
339.00	20038.89
340.00	21593.78
341.00	22151.61
342.00	21853.58
343.00	21229.44
344.00	20784.74
345.00	20869.00
346.00	21372.21
347.00	21998.70
348.00	22402.05
349.00	22312.33
350.00	21647.61
351.00	20599.05
352.00	19777.53
353.00	19623.83
354.00	20116.12
355.00	20890.06
356.00	21543.07
357.00	22100.12
358.00	22179.70
359.00	22318.57
360.00	22458.22
361.00	23028.53
362.00	23515.36
363.00	23996.73
364.00	24341.57
365.00	24389.94
366.00	24211.28
367.00	23910.13
368.00	23710.41
369.00	23327.34
370.00	23062.86
371.00	22749.23
372.00	22608.01
373.00	22130.55
374.00	21581.30
375.00	21092.13
376.00	20915.81
377.00	21033.61
378.00	21543.07
379.00	22067.35
380.00	22795.26
381.00	23300.03
382.00	23815.73
383.00	24237.81
384.00	24168.37
385.00	23902.33
386.00	23474.01
387.00	23559.05
388.00	23997.51
389.00	24683.29
390.00	25536.81
391.00	25930.02
392.00	26226.48
393.00	26354.43
394.00	26849.85
395.00	27194.68
396.00	27297.67
397.00	27379.59
398.00	27502.07
399.00	27877.34
400.00	27779.04
401.00	27752.51
402.00	27516.12
403.00	27773.58
404.00	28007.63
405.00	28295.52
406.00	28373.53
407.00	28169.91
408.00	27807.90
409.00	27753.29
410.00	27954.58
411.00	28199.55
412.00	27775.14
413.00	27103.40
414.00	26333.37
415.00	25935.48
416.00	25838.73
417.00	26107.12
418.00	26501.11
419.00	26826.44
420.00	27108.86
421.00	27477.89
422.00	27954.58
423.00	28313.46
424.00	28687.17
425.00	28967.25
426.00	29003.14
427.00	28744.12
428.00	28582.62
429.00	28533.47
430.00	28569.36
431.00	28514.75
432.00	28472.62
433.00	28460.91
434.00	28537.37
435.00	28642.70
436.00	28843.20
437.00	29088.18
438.00	29470.47
439.00	29901.12
440.00	30535.41
441.00	30996.49
442.00	31285.16
443.00	31028.48
444.00	30817.05
445.00	30562.72
446.00	30187.45
447.00	30086.03
448.00	29920.63
449.00	29855.87
450.00	29567.99
451.00	29213.01
452.00	28767.52
453.00	28185.51
454.00	27763.43
455.00	27612.08
456.00	27874.22
457.00	28338.43
458.00	28903.28
459.00	29288.68
460.00	29592.95
461.00	29603.10
462.00	29608.56
463.00	29341.74
464.00	29266.06
465.00	29098.32
466.00	29227.05
467.00	29485.29
468.00	29680.33
469.00	30178.09
470.00	30558.03
471.00	30946.56
472.00	30827.98
473.00	30781.17
474.00	30973.09
475.00	31187.64
476.00	31374.88
477.00	31607.37
478.00	31747.03
479.00	31917.11
480.00	31407.65
481.00	31176.72
482.00	30762.44
483.00	30575.98
484.00	30649.32
485.00	30794.43
486.00	30975.43
487.00	30968.41
488.00	30853.72
489.00	30970.75
490.00	30710.95
491.00	30610.31
492.00	30719.53
493.00	30915.36
494.00	31055.01
495.00	31082.31
496.00	31427.15
497.00	31789.94
498.00	32148.82
499.00	32204.99
500.00	32180.81
501.00	32145.70
502.00	32296.27
503.00	32397.70
504.00	32562.31
505.00	32511.60
506.00	32644.23
507.00	32782.32
508.00	32845.52
509.00	32907.15
510.00	32870.48
511.00	32864.24
512.00	32690.26
513.00	32499.90
514.00	32372.73
515.00	32298.61
516.00	32108.25
517.00	31860.15
518.00	31551.20
519.00	31298.42
520.00	31444.32
521.00	31498.93
522.00	31523.12
523.00	31821.92
524.00	32306.41
525.00	32718.35
526.00	32335.28
527.00	31892.92
528.00	31246.15
529.00	30772.58
530.00	30467.53
531.00	30551.01
532.00	30813.93
533.00	31232.11
534.00	31521.55
535.00	31925.69
536.00	31689.29
537.00	31330.41
538.00	31129.12
539.00	31488.79
540.00	31963.14
541.00	32065.34
542.00	31960.80
543.00	32057.54
544.00	32085.62
545.00	32018.53
546.00	31532.48
547.00	31200.90
548.00	30870.89
549.00	30899.75
550.00	30846.70
551.00	31037.84
552.00	31149.41
553.00	31440.42
554.00	31718.16
555.00	32194.85
556.00	32682.46
557.00	33180.21
558.00	33649.88
559.00	34055.57
560.00	34267.00
561.00	34032.95
562.00	33592.93
563.00	33213.76
564.00	33069.43
565.00	33159.93
566.00	33401.01
567.00	33482.92
568.00	33533.64
569.00	33470.44
570.00	33949.47
571.00	34454.25
572.00	34897.39
573.00	34864.62
574.00	34808.45
575.00	34818.59
576.00	35021.44
577.00	35030.80
578.00	34981.65
579.00	34742.13
580.00	34643.83
581.00	34615.74
582.00	34746.03
583.00	34689.86
584.00	34923.91
585.00	35233.64
586.00	35890.55
587.00	36113.69
588.00	36340.72
589.00	36673.85
590.00	37205.94
591.00	37665.46
592.00	37847.24
593.00	38009.52
594.00	37912.78
595.00	37725.53
596.00	37745.04
597.00	38010.30
598.00	38698.42
599.00	39161.06
600.00	39643.99
601.00	39738.40
602.00	39921.74
603.00	39874.93
604.00	40035.64
605.00	40386.72
606.00	40564.60
607.00	40671.49
608.00	40709.72
609.00	41141.94
610.00	41432.94
611.00	41607.70
612.00	42006.37
613.00	42431.57
614.00	42678.11
615.00	42578.25
616.00	42522.85
617.00	42496.33
618.00	42587.61
619.00	42594.63
620.00	42870.03
621.00	43094.72
622.00	43445.02
623.00	43793.76
624.00	43697.02
625.00	43495.74
626.00	43270.26
627.00	43507.44
628.00	43842.13
629.00	44210.38
630.00	44422.59
631.00	44331.31
632.00	43448.92
633.00	42712.44
634.00	41351.80
635.00	39579.24
636.00	37748.16
637.00	36951.60
638.00	37462.61
639.00	38455.78
640.00	39751.66
641.00	40918.03
642.00	41964.24
643.00	42766.27
644.00	43664.25
645.00	44454.58
646.00	45415.76
647.00	46030.54
648.00	46704.61
649.00	46872.35
650.00	46848.16
651.00	46601.63
652.00	46148.34
653.00	46235.72
654.00	46586.02
655.00	47634.58
656.00	48596.54
657.00	49407.93
658.00	49881.50
659.00	50181.09
660.00	50426.84
661.00	50355.07
662.00	50263.00
663.00	49846.39
664.00	49766.81
665.00	49667.73
666.00	49887.74
667.00	49762.91
668.00	49255.01
669.00	48564.56
670.00	48107.37
671.00	48165.10
672.00	48813.43
673.00	49709.86
674.00	50673.38
675.00	51309.22
676.00	51635.34
677.00	51586.97
678.00	51157.09
679.00	50927.72
680.00	50899.63
681.00	51306.10
682.00	51817.90
683.00	52477.93
684.00	53073.99
685.00	53456.28
686.00	53675.51
687.00	53630.26
688.00	53503.09
689.00	53123.14
690.00	52792.34
691.00	52463.89
692.00	52480.27
693.00	52846.18
694.00	53436.77
695.00	53946.23
696.00	53978.21
697.00	54016.44
698.00	54089.78
699.00	54297.31
700.00	54423.70
701.00	54547.75
702.00	54531.36
703.00	54255.18
704.00	53574.08
705.00	52977.25
706.00	52807.17
707.00	53130.94
708.00	53688.77
709.00	54059.35
710.00	54351.92
711.00	54628.88
712.00	54786.48
713.00	54809.89
714.00	54588.31
715.00	54304.33
716.00	53890.05
717.00	53717.64
718.00	53413.37
719.00	53349.39
720.00	53152.01
721.00	53113.78
722.00	52991.29
723.00	52877.38
724.00	52811.07
725.00	52766.60
726.00	52840.71
727.00	53187.89
728.00	53458.62
729.00	53788.63
730.00	53847.92
731.00	54084.32
732.00	54245.04
733.00	54467.39
734.00	54537.60
735.00	54322.27
736.00	53803.45
737.00	53238.61
738.00	52930.44
739.00	53139.52
740.00	53535.07
741.00	54113.97
742.00	54441.64
743.00	54653.07
744.00	54763.07
745.00	55072.81
746.00	55361.47
747.00	55715.67
748.00	55919.30
749.00	56188.46
750.00	56134.63
751.00	55977.81
752.00	55649.36
753.00	55447.29
754.00	55324.80
755.00	55235.86
756.00	55248.35
757.00	55047.06
758.00	54977.62
759.00	54531.36
760.00	54259.86
761.00	54125.67
762.00	54311.35
763.00	54733.43
764.00	55061.88
765.00	55393.46
766.00	55748.44
767.00	56058.95
768.00	56277.40
769.00	56147.11
770.00	55868.59
771.00	55522.97
772.00	55537.79
773.00	55590.06
774.00	55779.65
775.00	55790.57
776.00	55691.49
777.00	55704.75
778.00	55732.84
779.00	56069.09
780.00	56300.03
781.00	56647.99
782.00	56813.38
783.00	56822.75
784.00	56492.73
785.00	56082.36
786.00	55727.38
787.00	55505.02
788.00	55433.25
789.00	55551.84
790.00	55588.50
791.00	55657.94
792.00	55550.27
793.00	55491.76
794.00	55263.17
795.00	55019.75
796.00	54831.73
797.00	54853.58
798.00	54989.33
799.00	55165.65
800.00	55272.53
801.00	55438.71
802.00	55606.45
803.00	55759.36
804.00	55881.07
805.00	56041.79
806.00	56167.40
807.00	55949.73
808.00	55313.88
809.00	54232.55
810.00	52897.67
811.00	51426.25
812.00	50056.26
813.00	49467.22
814.00	49925.97
815.00	51306.10
816.00	52844.62
817.00	53682.53
818.00	53785.51
819.00	53077.11
820.00	52452.19
821.00	52183.02
822.00	52452.97
823.00	52992.07
824.00	53556.14
825.00	54097.58
826.00	54559.45
827.00	55006.49
828.00	55437.93
829.00	55726.60
830.00	55944.26
831.00	55871.71
832.00	55715.67
833.00	55376.29
834.00	55224.16
835.00	55372.39
836.00	55689.15
837.00	56033.21
838.00	56193.14
839.00	56168.96
840.00	56245.41
841.00	56360.10
842.00	56481.81
843.00	56309.39
844.00	55897.45
845.00	55439.49
846.00	55156.28
847.00	55072.81
848.00	55114.15
849.00	55387.22
850.00	55742.98
851.00	56165.06
852.00	56455.28
853.00	56725.22
854.00	56982.68
855.00	57129.36
856.00	57133.26
857.00	56956.16
858.00	56715.86
859.00	56460.74
860.00	56426.42
861.00	56563.73
862.00	56765.79
863.00	56856.29
864.00	56549.68
865.00	56062.85
866.00	55266.29
867.00	54392.49
868.00	53301.02
869.00	52743.97
870.00	52442.04
871.00	52790.78
872.00	53058.38
873.00	53728.56
874.00	54461.15
875.00	55089.97
876.00	55621.27
877.00	55739.86
878.00	55937.24
879.00	56005.90
880.00	56331.23
881.00	56692.46
882.00	57007.65
883.00	57124.67
884.00	57062.26
885.00	56750.97
886.00	56445.14
887.00	56158.81
888.00	56048.03
889.00	55982.49
890.00	56168.96
891.00	56495.07
892.00	56830.55
893.00	56915.59
894.00	56941.33
895.00	56965.52
896.00	56934.31
897.00	56843.03
898.00	56644.87
899.00	56420.17
900.00	56080.02
901.00	55644.68
902.00	55024.43
903.00	54504.06
904.00	54012.54
905.00	54030.49
906.00	54251.28
907.00	54907.41
908.00	55295.16
909.00	55752.34
910.00	55785.11
911.00	55828.02
912.00	55463.67
913.00	55275.65
914.00	55152.38
915.00	55254.59
916.00	55396.58
917.00	55604.89
918.00	55927.10
919.00	56100.30
920.00	56341.38
921.00	56491.17
922.00	56694.02
923.00	56604.30
924.00	56307.05
925.00	55915.40
926.00	55524.53
927.00	54998.69
928.00	54582.07
929.00	54286.39
930.00	54409.65
931.00	54638.25
932.00	55027.56
933.00	55316.22
934.00	55471.48
935.00	55454.31
936.00	55510.49
937.00	55559.64
938.00	55510.49
939.00	55477.72
940.00	55364.59
941.00	55173.45
942.00	54940.17
943.00	54643.71
944.00	54535.26
945.00	54203.69
946.00	54080.42
947.00	53800.33
948.00	53727.00
949.00	53440.67
950.00	53428.19
951.00	53203.50
952.00	53159.03
953.00	53156.69
954.00	53445.35
955.00	53783.95
956.00	54015.66
957.00	54223.19
958.00	54525.12
959.00	54657.75
960.00	54479.87
961.00	54177.16
962.00	54117.87
963.00	54201.35
964.00	54200.57
965.00	54108.50
966.00	54093.68
967.00	54184.18
968.00	54296.53
969.00	54503.28
970.00	54873.08
971.00	55220.26
972.00	55303.74
973.00	55011.17
974.00	54716.26
975.00	54576.61
976.00	54495.47
977.00	54485.33
978.00	54429.16
979.00	54497.81
980.00	54308.23
981.00	54462.71
982.00	54433.84
983.00	54610.94
984.00	54443.20
985.00	54326.17
986.00	54131.13
987.00	53989.92
988.00	54122.55
989.00	54022.68
990.00	53929.84
991.00	53393.86
992.00	53173.07
993.00	52882.84
994.00	53127.04
995.00	53296.34
996.00	53708.27
997.00	53890.05
998.00	54227.09
999.00	54290.29
1000.00	54433.06
1001.00	54341.00
1002.00	54277.02
1003.00	54014.88
1004.00	53926.72
1005.00	53960.27
1006.00	54154.54
1007.00	54160.00
1008.00	54090.56
1009.00	53757.42
1010.00	53642.74
1011.00	53532.73
1012.00	53609.97
1013.00	53441.45
1014.00	53372.80
1015.00	53329.89
1016.00	53486.70
1017.00	53717.64
1018.00	53943.89
1019.00	54114.75
1020.00	54040.63
1021.00	53764.45
1022.00	53445.35
1023.00	53097.39
1024.00	52897.67
1025.00	52903.13
1026.00	53066.97
1027.00	53354.85
1028.00	53515.57
1029.00	53491.38
1030.00	53506.21
1031.00	53659.90
1032.00	53887.71
1033.00	54049.21
1034.00	53982.12
1035.00	53925.16
1036.00	53903.32
1037.00	53876.01
1038.00	53835.44
1039.00	53599.05
1040.00	53464.08
1041.00	53248.75
1042.00	53153.57
1043.00	53012.35
1044.00	52977.25
1045.00	52861.00
1046.00	52628.51
1047.00	52408.50
1048.00	52211.89
1049.00	52187.70
1050.00	52250.12
1051.00	52368.71
1052.00	52402.25
1053.00	52426.44
1054.00	52456.87
1055.00	52506.02
1056.00	52383.53
1057.00	52112.03
1058.00	51601.01
1059.00	51176.59
1060.00	50881.69
1061.00	50878.57
1062.00	50936.30
1063.00	51103.26
1064.00	51155.53
1065.00	51140.71
1066.00	50973.75
1067.00	51019.00
1068.00	51105.60
1069.00	51495.69
1070.00	51812.44
1071.00	52239.20
1072.00	52392.11
1073.00	52471.69
1074.00	52314.87
1075.00	51965.35
1076.00	51417.67
1077.00	50979.21
1078.00	50922.26
1079.00	51031.48
1080.00	51147.73
1081.00	51189.08
1082.00	51266.31
1083.00	51373.20
1084.00	51471.50
1085.00	51640.02
1086.00	51806.98
1087.00	51799.18
1088.00	51629.88
1089.00	51349.01
1090.00	51114.96
1091.00	50935.52
1092.00	50763.88
1093.00	50712.39
1094.00	50870.76
1095.00	51025.24
1096.00	50933.18
1097.00	50892.61
1098.00	50792.75
1099.00	50695.22
1100.00	50255.98
1101.00	49860.43
1102.00	49446.16
1103.00	49276.08
1104.00	49265.16
1105.00	49434.45
1106.00	49648.22
1107.00	49717.66
1108.00	50016.47
1109.00	50184.99
1110.00	50568.83
1111.00	50582.88
1112.00	50622.67
1113.00	50460.39
1114.00	50352.73
1115.00	50071.08
1116.00	49697.38
1117.00	49315.87
1118.00	48927.34
1119.00	48598.10
1120.00	48392.92
1121.00	48292.27
1122.00	48531.79
1123.00	48779.10
1124.00	48896.91
1125.00	48698.75
1126.00	48470.15
1127.00	48566.90
1128.00	48418.66
1129.00	48331.28
1130.00	47894.38
1131.00	47661.11
1132.00	47194.56
1133.00	46806.81
1134.00	46420.62
1135.00	46302.04
1136.00	46554.82
1137.00	46937.10
1138.00	47498.05
1139.00	47826.51
1140.00	48240.00
1141.00	48353.91
1142.00	48332.84
1143.00	48251.70
1144.00	48258.73
1145.00	48362.49
1146.00	48317.24
1147.00	48030.91
1148.00	47948.21
1149.00	47920.91
1150.00	48009.07
1151.00	47906.08
1152.00	47825.73
1153.00	47715.72
1154.00	47398.97
1155.00	47125.91
1156.00	47043.99
1157.00	46855.18
1158.00	46667.94
1159.00	46238.84
1160.00	46142.88
1161.00	45867.48
1162.00	45840.95
1163.00	45726.27
1164.00	45830.81
1165.00	45819.11
1166.00	45863.58
1167.00	45865.92
1168.00	46087.49
1169.00	46209.20
1170.00	46334.81
1171.00	46309.06
1172.00	46124.16
1173.00	45948.62
1174.00	45761.37
1175.00	45787.12
1176.00	45504.70
1177.00	45053.75
1178.00	44635.58
1179.00	44461.60
1180.00	44438.19
1181.00	44489.68
1182.00	44660.54
1183.00	44777.57
1184.00	44879.77
1185.00	44974.95
1186.00	45155.96
1187.00	45259.72
1188.00	45361.14
1189.00	45416.54
1190.00	45569.45
1191.00	45537.46
1192.00	45432.92
1193.00	45407.17
1194.00	45335.40
1195.00	45426.68
1196.00	45338.52
1197.00	45503.92
1198.00	45448.52
1199.00	45493.77
1200.00	45503.14
1201.00	45776.20
1202.00	45936.13
1203.00	46109.33
1204.00	45865.14
1205.00	45999.33
1206.00	45894.00
1207.00	46218.56
1208.00	46000.11
1209.00	45943.16
1210.00	45797.26
1211.00	45794.14
1212.00	45780.88
1213.00	45842.51
1214.00	45776.98
1215.00	45767.62
1216.00	45450.08
1217.00	45403.27
1218.00	45310.43
1219.00	45311.21
1220.00	45168.44
1221.00	44742.46
1222.00	44409.32
1223.00	44230.66
1224.00	44141.72
1225.00	43906.11
1226.00	43501.20
1227.00	43337.36
1228.00	43256.22
1229.00	43394.31
1230.00	43501.98
1231.00	43880.36
1232.00	44015.33
1233.00	44165.13
1234.00	44006.75
1235.00	43975.55
1236.00	43840.57
1237.00	43731.35
1238.00	43677.52
1239.00	43613.54
1240.00	43424.74
1241.00	42905.14
1242.00	42064.89
1243.00	41108.39
1244.00	40023.94
1245.00	38955.10
1246.00	38069.59
1247.00	37535.95
1248.00	37260.55
1249.00	37180.19
1250.00	37544.53
1251.00	38284.14
1252.00	39157.94
1253.00	40127.70
1254.00	40840.79
1255.00	41351.80
1256.00	41585.08
1257.00	41908.07
1258.00	42130.42
1259.00	41816.79
1260.00	41471.17
1261.00	41226.98
1262.00	41344.78
1263.00	41421.24
1264.00	41317.48
1265.00	41151.30
1266.00	41024.13
1267.00	41178.61
1268.00	41194.99
1269.00	41255.84
1270.00	41040.51
1271.00	41014.77
1272.00	41093.57
1273.00	41203.57
1274.00	41387.69
1275.00	41320.60
1276.00	41206.69
1277.00	40949.23
1278.00	40616.10
1279.00	40474.10
1280.00	40011.46
1281.00	39836.70
1282.00	39621.37
1283.00	40073.09
1284.00	40103.52
1285.00	40215.08
1286.00	40104.30
1287.00	40187.78
1288.00	40225.23
1289.00	40407.01
1290.00	40669.93
1291.00	40963.28
1292.00	41031.93
1293.00	40864.19
1294.00	40697.24
1295.00	40568.51
1296.00	40683.19
1297.00	40544.32
1298.00	40480.35
1299.00	40379.70
1300.00	40357.08
1301.00	40249.41
1302.00	40116.78
1303.00	40157.35
1304.00	40133.17
1305.00	39998.20
1306.00	39858.54
1307.00	39778.96
1308.00	39903.79
1309.00	39945.14
1310.00	40082.45
1311.00	40000.54
1312.00	40123.80
1313.00	39942.80
1314.00	40010.68
1315.00	39878.05
1316.00	39853.86
1317.00	39828.12
1318.00	39685.34
1319.00	39546.47
1320.00	39330.36
1321.00	39288.23
1322.00	39319.44
1323.00	39306.96
1324.00	39237.52
1325.00	39154.82
1326.00	39059.64
1327.00	39019.85
1328.00	38888.00
1329.00	38792.04
1330.00	38756.15
1331.00	38801.40
1332.00	38943.39
1333.00	39076.80
1334.00	39289.79
1335.00	39393.56
1336.00	39482.50
1337.00	39404.48
1338.00	39409.16
1339.00	39385.75
1340.00	39506.68
1341.00	39548.81
1342.00	39426.32
1343.00	39374.83
1344.00	39072.90
1345.00	39067.44
1346.00	38935.59
1347.00	39179.79
1348.00	39281.21
1349.00	39336.60
1350.00	39076.02
1351.00	38866.94
1352.00	38479.97
1353.00	38418.33
1354.00	38318.47
1355.00	38422.23
1356.00	38382.45
1357.00	38251.38
1358.00	38287.26
1359.00	38316.13
1360.00	38413.65
1361.00	38432.38
1362.00	38449.54
1363.00	38313.79
1364.00	38113.28
1365.00	38085.20
1366.00	38057.11
1367.00	37751.28
1368.00	37528.93
1369.00	37352.61
1370.00	37553.90
1371.00	37283.95
1372.00	37188.77
1373.00	37056.14
1374.00	37102.95
1375.00	37124.02
1376.00	37120.12
1377.00	37070.96
1378.00	37014.79
1379.00	36733.15
1380.00	36584.91
1381.00	36350.08
1382.00	36371.14
1383.00	36347.74
1384.00	36427.32
1385.00	36449.94
1386.00	36547.47
1387.00	36655.91
1388.00	36796.34
1389.00	36691.80
1390.00	36770.60
1391.00	36609.10
1392.00	36483.49
1393.00	36091.06
1394.00	35845.30
1395.00	35872.61
1396.00	35864.81
1397.00	35828.14
1398.00	35801.61
1399.00	35739.98
1400.00	35828.14
1401.00	35641.68
1402.00	35459.12
1403.00	35076.83
1404.00	34815.47
1405.00	34533.82
1406.00	34534.60
1407.00	34758.52
1408.00	35004.27
1409.00	35201.66
1410.00	35161.87
1411.00	35178.25
1412.00	35116.62
1413.00	35071.37
1414.00	35074.49
1415.00	34902.85
1416.00	34635.25
1417.00	34303.67
1418.00	33973.66
1419.00	33571.86
1420.00	33322.99
1421.00	33177.09
1422.00	33230.15
1423.00	33089.71
1424.00	33220.00
1425.00	33391.64
1426.00	33591.37
1427.00	33744.28
1428.00	33751.31
1429.00	34019.69
1430.00	34179.62
1431.00	34345.02
1432.00	34394.17
1433.00	34431.62
1434.00	34451.13
1435.00	34385.59
1436.00	34174.94
1437.00	33888.62
1438.00	33638.18
1439.00	33394.76
1440.00	33494.63
1441.00	33588.25
1442.00	33919.04
1443.00	33897.98
1444.00	33930.75
1445.00	33780.95
1446.00	34036.07
1447.00	34039.19
1448.00	33987.70
1449.00	33934.65
1450.00	33925.28
1451.00	33888.62
1452.00	33663.93
1453.00	33445.48
1454.00	33227.03
1455.00	32897.79
1456.00	32723.81
1457.00	32653.59
1458.00	32875.16
1459.00	32850.98
1460.00	32853.32
1461.00	32638.77
1462.00	32413.30
1463.00	32094.99
1464.00	31953.77
1465.00	31880.44
1466.00	31860.15
1467.00	31633.12
1468.00	31690.07
1469.00	31667.45
1470.00	31746.25
1471.00	31644.04
1472.00	31587.87
1473.00	31363.18
1474.00	31076.07
1475.00	30875.57
1476.00	30676.62
1477.00	30650.10
1478.00	30574.42
1479.00	30589.24
1480.00	30494.84
1481.00	30297.45
1482.00	30187.45
1483.00	30183.55
1484.00	30344.27
1485.00	30508.88
1486.00	30533.07
1487.00	30636.05
1488.00	30581.44
1489.00	30747.62
1490.00	30652.44
1491.00	30684.42
1492.00	30455.83
1493.00	30236.60
1494.00	29667.85
1495.00	28910.30
1496.00	28262.75
1497.00	27844.57
1498.00	27854.72
1499.00	27914.79
1500.00	28182.39
1501.00	28481.98
1502.00	28687.95
1503.00	28790.93
1504.00	28829.94
1505.00	28923.56
1506.00	28895.47
1507.00	28763.62
1508.00	28487.44
1509.00	28303.32
1510.00	28221.40
1511.00	28148.06
1512.00	28141.04
1513.00	28151.96
1514.00	28403.18
1515.00	28591.20
1516.00	28638.01
1517.00	28606.81
1518.00	28508.51
1519.00	28482.76
1520.00	28287.71
1521.00	28114.52
1522.00	27903.87
1523.00	27843.79
1524.00	27873.44
1525.00	27934.29
1526.00	28172.25
1527.00	28393.04
1528.00	28652.06
1529.00	28662.20
1530.00	28716.81
1531.00	28625.53
1532.00	28481.20
1533.00	28391.48
1534.00	28162.89
1535.00	28063.02
1536.00	27882.80
1537.00	27921.81
1538.00	27963.94
1539.00	28039.62
1540.00	27988.91
1541.00	28072.39
1542.00	28081.75
1543.00	28371.19
1544.00	28402.40
1545.00	28456.23
1546.00	28268.99
1547.00	28137.14
1548.00	27857.06
1549.00	27755.63
1550.00	27601.94
1551.00	27592.58
1552.00	27522.36
1553.00	27615.20
1554.00	27739.25
1555.00	27824.29
1556.00	27771.24
1557.00	27789.96
1558.00	27906.99
1559.00	28117.64
1560.00	28128.56
1561.00	28123.10
1562.00	28197.21
1563.00	28165.23
1564.00	28059.12
1565.00	27852.38
1566.00	27811.81
1567.00	27816.49
1568.00	27832.87
1569.00	27818.05
1570.00	27771.24
1571.00	27639.39
1572.00	27466.97
1573.00	27321.07
1574.00	27230.57
1575.00	27157.24
1576.00	27035.53
1577.00	27001.98
1578.00	27000.42
1579.00	26877.93
1580.00	26784.31
1581.00	26611.89
1582.00	26568.98
1583.00	26517.49
1584.00	26514.37
1585.00	26469.12
1586.00	26322.44
1587.00	26157.83
1588.00	26206.20
1589.00	26215.56
1590.00	26342.73
1591.00	26203.86
1592.00	26165.63
1593.00	26201.52
1594.00	26187.47
1595.00	26171.09
1596.00	26242.09
1597.00	26288.90
1598.00	26386.42
1599.00	26263.15
1600.00	26284.22
1601.00	26070.45
1602.00	25981.51
1603.00	25765.40
1604.00	25667.09
1605.00	25716.25
1606.00	25915.97
1607.00	26010.37
1608.00	25947.18
1609.00	25779.44
1610.00	25781.78
1611.00	25649.15
1612.00	25498.58
1613.00	25327.72
1614.00	25272.32
1615.00	25331.62
1616.00	25217.71
1617.00	25133.45
1618.00	24998.48
1619.00	24968.05
1620.00	24949.33
1621.00	24834.64
1622.00	24860.39
1623.00	24641.16
1624.00	24687.97
1625.00	24589.67
1626.00	24565.48
1627.00	24351.71
1628.00	24196.46
1629.00	24157.45
1630.00	24173.83
1631.00	24088.79
1632.00	24098.16
1633.00	24153.55
1634.00	24050.56
1635.00	23921.84
1636.00	23857.86
1637.00	24009.22
1638.00	24001.41
1639.00	24016.24
1640.00	23732.25
1641.00	23395.21
1642.00	22803.06
1643.00	22683.69
1644.00	22648.58
1645.00	22842.07
1646.00	23186.91
1647.00	23545.01
1648.00	23895.31
1649.00	24029.50
1650.00	24150.43
1651.00	24207.38
1652.00	24278.38
1653.00	24327.53
1654.00	24177.73
1655.00	23907.01
1656.00	23549.69
1657.00	23397.56
1658.00	23245.42
1659.00	23158.82
1660.00	23090.95
1661.00	23138.54
1662.00	23267.27
1663.00	23481.81
1664.00	23680.76
1665.00	23655.01
1666.00	23586.36
1667.00	23471.67
1668.00	23559.05
1669.00	23520.04
1670.00	23523.94
1671.00	23519.26
1672.00	23527.07
1673.00	23371.81
1674.00	23330.46
1675.00	23251.66
1676.00	23192.37
1677.00	22943.49
1678.00	22739.08
1679.00	22508.93
1680.00	22418.43
1681.00	22385.66
1682.00	22366.94
1683.00	22113.38
1684.00	21717.05
1685.00	21258.31
1686.00	20614.66
1687.00	19875.83
1688.00	18960.68
1689.00	18224.97
1690.00	17906.66
1691.00	18182.06
1692.00	18785.14
1693.00	19265.73
1694.00	19832.92
1695.00	20357.98
1696.00	20826.09
1697.00	21135.82
1698.00	21378.45
1699.00	21669.46
1700.00	21774.78
1701.00	21979.19
1702.00	22079.83
1703.00	22251.47
1704.00	22219.49
1705.00	22157.85
1706.00	22045.51
1707.00	22020.54
1708.00	22027.56
1709.00	21952.66
1710.00	21849.68
1711.00	21860.60
1712.00	21834.86
1713.00	21880.11
1714.00	21812.23
1715.00	21801.31
1716.00	21813.79
1717.00	21778.68
1718.00	21808.33
1719.00	21861.38
1720.00	21904.29
1721.00	21862.94
1722.00	21779.46
1723.00	21716.27
1724.00	21667.90
1725.00	21652.30
1726.00	21620.31
1727.00	21699.89
1728.00	21674.14
1729.00	21778.68
1730.00	21788.05
1731.00	21749.04
1732.00	21575.06
1733.00	21543.85
1734.00	21546.97
1735.00	21593.00
1736.00	21387.04
1737.00	21188.87
1738.00	20926.73
1739.00	20854.17
1740.00	20798.78
1741.00	20825.31
1742.00	20823.75
1743.00	20754.31
1744.00	20688.78
1745.00	20599.84
1746.00	20651.33
1747.00	20646.65
1748.00	20742.61
1749.00	20743.39
1750.00	20737.15
1751.00	20690.34
1752.00	20644.31
1753.00	20630.26
1754.00	20560.83
1755.00	20510.89
1756.00	20482.03
1757.00	20338.48
1758.00	20162.93
1759.00	20017.82
1760.00	19935.90
1761.00	19862.57
1762.00	19960.87
1763.00	19945.27
1764.00	19996.76
1765.00	19750.22
1766.00	19772.07
1767.00	19804.05
1768.00	19819.66
1769.00	19705.75
1770.00	19596.53
1771.00	19629.29
1772.00	19643.34
1773.00	19645.68
1774.00	19600.43
1775.00	19630.85
1776.00	19569.22
1777.00	19580.92
1778.00	19581.70
1779.00	19580.92
1780.00	19534.11
1781.00	19460.77
1782.00	19306.30
1783.00	19158.06
1784.00	19062.10
1785.00	19053.52
1786.00	18979.40
1787.00	18911.53
1788.00	18884.22
1789.00	18841.31
1790.00	18801.52
1791.00	18747.69
1792.00	18729.75
1793.00	18560.45
1794.00	18473.85
1795.00	18342.78
1796.00	18347.46
1797.00	18185.96
1798.00	18083.76
1799.00	17892.62
1800.00	17861.41
1801.00	17827.86
1802.00	17968.29
1803.00	17966.73
1804.00	18083.76
1805.00	18005.74
1806.00	17990.92
1807.00	17906.66
1808.00	17838.00
1809.00	17866.87
1810.00	17926.16
1811.00	17897.30
1812.00	17812.26
1813.00	17618.77
1814.00	17595.37
1815.00	17493.94
1816.00	17486.92
1817.00	17436.99
1818.00	17398.76
1819.00	17310.60
1820.00	17197.48
1821.00	17075.77
1822.00	17001.65
1823.00	16985.27
1824.00	17042.22
1825.00	17089.81
1826.00	17113.22
1827.00	17161.59
1828.00	17219.32
1829.00	17213.08
1830.00	16890.87
1831.00	16793.34
1832.00	16729.37
1833.00	16850.30
1834.00	16808.17
1835.00	16652.91
1836.00	16514.04
1837.00	16335.38
1838.00	16322.12
1839.00	16386.87
1840.00	16403.25
1841.00	16381.41
1842.00	16338.50
1843.00	16289.35
1844.00	16324.46
1845.00	16243.32
1846.00	16155.16
1847.00	15910.96
1848.00	15834.50
1849.00	15768.19
1850.00	15745.56
1851.00	15726.06
1852.00	15690.17
1853.00	15614.49
1854.00	15549.74
1855.00	15443.63
1856.00	15517.75
1857.00	15461.58
1858.00	15467.04
1859.00	15311.78
1860.00	15222.06
1861.00	15091.77
1862.00	15029.36
1863.00	15000.49
1864.00	14922.48
1865.00	14945.10
1866.00	14902.97
1867.00	14948.22
1868.00	14932.62
1869.00	14871.76
1870.00	14792.19
1871.00	14720.41
1872.00	14618.21
1873.00	14593.24
1874.00	14540.97
1875.00	14583.10
1876.00	14540.97
1877.00	14445.01
1878.00	14296.77
1879.00	14189.89
1880.00	14161.02
1881.00	14098.61
1882.00	14057.26
1883.00	13987.04
1884.00	13987.82
1885.00	13838.81
1886.00	13626.60
1887.00	13469.00
1888.00	13461.20
1889.00	13526.74
1890.00	13508.79
1891.00	13422.97
1892.00	13408.15
1893.00	13431.55
1894.00	13421.41
1895.00	13327.79
1896.00	13260.70
1897.00	13233.39
1898.00	13160.05
1899.00	13086.72
1900.00	13068.77
1901.00	13057.85
1902.00	12876.85
1903.00	12638.11
1904.00	12241.78
1905.00	11708.92
1906.00	10891.29
1907.00	9937.91
1908.00	9103.90
1909.00	8409.54
1910.00	8017.12
1911.00	7844.70
1912.00	7952.36
1913.00	8195.78
1914.00	8594.45
1915.00	9075.04
1916.00	9475.27
1917.00	9770.96
1918.00	9971.46
1919.00	10062.74
1920.00	10047.92
1921.00	9884.08
1922.00	9746.77
1923.00	9606.34
1924.00	9514.28
1925.00	9447.18
1926.00	9426.90
1927.00	9426.90
1928.00	9559.53
1929.00	9640.67
1930.00	9699.18
1931.00	9696.84
1932.00	9688.26
1933.00	9768.62
1934.00	9788.90
1935.00	9962.88
1936.00	10005.01
1937.00	10054.94
1938.00	10046.36
1939.00	10164.17
1940.00	10228.92
1941.00	10210.98
1942.00	10109.55
1943.00	10097.85
1944.00	10112.67
1945.00	10118.14
1946.00	10129.84
1947.00	10067.42
1948.00	9998.77
1949.00	9969.90
1950.00	9998.77
1951.00	9986.29
1952.00	9834.93
1953.00	9704.64
1954.00	9712.44
1955.00	9724.15
1956.00	9773.30
1957.00	9735.07
1958.00	9625.06
1959.00	9493.99
1960.00	9336.40
1961.00	9331.72
1962.00	9281.78
1963.00	9263.84
1964.00	9254.48
1965.00	9266.96
1966.00	9209.23
1967.00	9131.99
1968.00	9153.84
1969.00	9227.17
1970.00	9295.83
1971.00	9150.71
1972.00	9100.78
1973.00	9064.11
1974.00	9132.77
1975.00	9175.68
1976.00	9151.49
1977.00	9060.99
1978.00	8978.30
1979.00	8939.29
1980.00	9007.16
1981.00	9096.10
1982.00	9151.49
1983.00	9141.35
1984.00	9099.22
1985.00	9098.44
1986.00	9054.75
1987.00	9022.77
1988.00	8855.03
1989.00	8715.37
1990.00	8538.27
1991.00	8475.86
1992.00	8487.56
1993.00	8500.83
1994.00	8429.05
1995.00	8361.95
1996.00	8210.60
1997.00	8166.91
1998.00	8109.18
1999.00	8116.20
2000.00	8026.48
2001.00	7953.14
2002.00	7961.72
2003.00	8017.12
2004.00	7974.99
2005.00	7854.06
2006.00	7818.95
2007.00	7757.32
2008.00	7639.51
2009.00	7566.17
2010.00	7552.13
2011.00	7620.78
2012.00	7622.34
2013.00	7575.53
2014.00	7524.04
2015.00	7481.91
2016.00	7473.33
2017.00	7452.27
2018.00	7403.89
2019.00	7399.21
2020.00	7382.05
2021.00	7305.59
2022.00	7259.56
2023.00	7162.04
2024.00	7105.09
2025.00	7021.61
2026.00	7085.58
2027.00	7051.25
2028.00	7135.51
2029.00	7115.23
2030.00	7200.27
2031.00	7123.81
2032.00	7119.91
2033.00	7075.44
2034.00	7088.70
2035.00	7039.55
2036.00	6989.62
2037.00	6910.82
2038.00	6885.86
2039.00	6944.37
2040.00	6950.61
2041.00	6921.74
2042.00	6849.19
2043.00	6814.08
2044.00	6721.24
2045.00	6664.29
2046.00	6672.87
2047.00	6773.51
>>>>>End Processed Spectral Data<<<<<
