SpectraSuite Data File
++++++++++++++++++++++++++++++++++++
Date: Thu Nov 16 13:32:53 EST 2017
User: cheriyan
Dark Spectrum Present: No
Reference Spectrum Present: No
Number of Sampled Component Spectra: 1
Spectrometers: USB2+H05261
Integration Time (usec): 90000 (USB2+H05261)
Spectra Averaged: 1 (USB2+H05261)
Boxcar Smoothing: 1 (USB2+H05261)
Correct for Electrical Dark: No (USB2+H05261)
Strobe/Lamp Enabled: No (USB2+H05261)
Correct for Detector Non-linearity: No (USB2+H05261)
Correct for Stray Light: No (USB2+H05261)
Number of Pixels in Processed Spectrum: 2048
>>>>>Begin Processed Spectral Data<<<<<
0.00	367.46
1.00	367.46
2.00	366.68
3.00	330.80
4.00	293.35
5.00	260.58
6.00	234.05
7.00	234.83
8.00	238.73
9.00	255.12
10.00	259.02
11.00	268.38
12.00	276.96
13.00	282.42
14.00	280.08
15.00	310.51
16.00	303.49
17.00	306.61
18.00	280.08
19.00	298.03
20.00	282.42
21.00	284.77
22.00	294.13
23.00	773.94
24.00	2420.11
25.00	4171.61
26.00	5540.83
27.00	5685.16
28.00	5568.91
29.00	5369.97
30.00	5167.12
31.00	5089.10
32.00	5118.75
33.00	5175.70
34.00	5140.60
35.00	4995.48
36.00	4790.30
37.00	4709.16
38.00	4650.64
39.00	4734.90
40.00	4844.91
41.00	4908.88
42.00	4876.90
43.00	4833.21
44.00	4867.53
45.00	5091.45
46.00	5326.28
47.00	5569.69
48.00	5714.81
49.00	5775.66
50.00	5798.29
51.00	5727.29
52.00	5756.94
53.00	5800.63
54.00	5942.62
55.00	6117.38
56.00	6356.11
57.00	6668.19
58.00	6905.36
59.00	7108.21
60.00	7238.50
61.00	7338.36
62.00	7260.34
63.00	7017.71
64.00	6709.54
65.00	6410.73
66.00	6174.33
67.00	5988.65
68.00	5906.73
69.00	5922.34
70.00	6097.88
71.00	6377.96
72.00	6723.58
73.00	6929.55
74.00	7049.69
75.00	6914.72
76.00	6771.17
77.00	6466.90
78.00	6158.73
79.00	5795.17
80.00	5485.44
81.00	5258.40
82.00	5028.25
83.00	4876.90
84.00	4763.77
85.00	4646.74
86.00	4551.56
87.00	4486.81
88.00	4452.48
89.00	4552.34
90.00	4784.84
91.00	5198.33
92.00	5605.58
93.00	6035.46
94.00	6371.72
95.00	6562.86
96.00	6548.04
97.00	6459.10
98.00	6334.27
99.00	6285.12
100.00	6169.65
101.00	6154.83
102.00	6213.34
103.00	6411.51
104.00	6576.13
105.00	6583.93
106.00	6524.63
107.00	6530.87
108.00	6545.70
109.00	6606.55
110.00	6637.76
111.00	6650.24
112.00	6661.16
113.00	6613.57
114.00	6665.07
115.00	6762.59
116.00	7102.75
117.00	7504.54
118.00	7935.98
119.00	8205.92
120.00	8357.27
121.00	8417.35
122.00	8375.22
123.00	8404.08
124.00	8509.41
125.00	8672.46
126.00	8957.23
127.00	9219.37
128.00	9451.08
129.00	9470.59
130.00	9260.72
131.00	8945.53
132.00	8501.61
133.00	8141.16
134.00	7577.87
135.00	6968.55
136.00	6164.97
137.00	5449.55
138.00	4882.36
139.00	4670.15
140.00	4832.43
141.00	5351.24
142.00	6101.78
143.00	6962.31
144.00	7723.77
145.00	8381.46
146.00	8908.86
147.00	9473.71
148.00	9873.94
149.00	10181.33
150.00	10104.09
151.00	9827.13
152.00	9217.81
153.00	8461.82
154.00	7556.81
155.00	6739.96
156.00	6046.38
157.00	5807.65
158.00	6093.97
159.00	6871.03
160.00	7972.64
161.00	9025.89
162.00	10118.14
163.00	10968.53
164.00	11708.14
165.00	12230.86
166.00	12550.73
167.00	12822.23
168.00	13135.87
169.00	13475.24
170.00	13696.82
171.00	13772.49
172.00	13813.84
173.00	13995.62
174.00	14029.17
175.00	14138.40
176.00	14171.16
177.00	14310.82
178.00	14431.74
179.00	14677.50
180.00	14896.73
181.00	15025.46
182.00	15152.63
183.00	15292.28
184.00	15516.97
185.00	15499.03
186.00	15449.10
187.00	15396.82
188.00	15217.38
189.00	15013.76
190.00	14854.60
191.00	14923.26
192.00	15312.56
193.00	15612.93
194.00	15657.40
195.00	15365.62
196.00	15018.44
197.00	14921.70
198.00	15047.30
199.00	15190.86
200.00	15405.41
201.00	15394.48
202.00	15421.79
203.00	15193.98
204.00	15043.40
205.00	14797.65
206.00	14728.99
207.00	14791.41
208.00	15100.36
209.00	15388.24
210.00	15580.17
211.00	15447.54
212.00	15361.72
213.00	15333.63
214.00	15620.74
215.00	16001.46
216.00	16375.17
217.00	16741.07
218.00	16976.69
219.00	17317.62
220.00	17500.19
221.00	17468.98
222.00	17103.07
223.00	16393.11
224.00	15763.51
225.00	15275.90
226.00	15146.39
227.00	15305.54
228.00	15555.98
229.00	16128.63
230.00	16678.66
231.00	17388.62
232.00	17892.62
233.00	18230.43
234.00	18334.98
235.00	18327.17
236.00	18473.85
237.00	18525.34
238.00	18462.93
239.00	18216.39
240.00	18050.99
241.00	18000.28
242.00	18004.18
243.00	18060.35
244.00	18373.99
245.00	18692.30
246.00	18919.33
247.00	18956.00
248.00	18829.61
249.00	18764.07
250.00	18725.07
251.00	18928.69
252.00	19042.60
253.00	19076.93
254.00	19066.00
255.00	19396.02
256.00	19672.20
257.00	20073.21
258.00	20244.85
259.00	20508.55
260.00	20465.64
261.00	20205.06
262.00	19728.38
263.00	19340.63
264.00	19226.72
265.00	19217.36
266.00	19417.08
267.00	19579.36
268.00	19792.35
269.00	19814.20
270.00	19837.60
271.00	19833.70
272.00	20035.77
273.00	20226.91
274.00	20258.90
275.00	20173.86
276.00	19971.79
277.00	19755.68
278.00	19638.66
279.00	19761.14
280.00	20323.65
281.00	20852.61
282.00	21451.79
283.00	21648.40
284.00	21739.68
285.00	21618.75
286.00	21724.07
287.00	21499.38
288.00	21163.12
289.00	20655.23
290.00	20110.66
291.00	19556.74
292.00	19278.99
293.00	19588.72
294.00	20071.65
295.00	20375.92
296.00	20424.29
297.00	20404.01
298.00	20472.67
299.00	20451.60
300.00	20546.00
301.00	20252.66
302.00	20296.35
303.00	20191.80
304.00	20375.92
305.00	20308.05
306.00	20130.95
307.00	20004.56
308.00	19889.09
309.00	19811.85
310.00	20052.15
311.00	20386.85
312.00	20620.90
313.00	20278.40
314.00	19578.58
315.00	18948.20
316.00	18702.44
317.00	18745.35
318.00	19215.80
319.00	19481.06
320.00	19882.07
321.00	19819.66
322.00	19718.23
323.00	19415.52
324.00	19197.07
325.00	19065.22
326.00	18997.35
327.00	18796.06
328.00	18366.18
329.00	17521.25
330.00	16688.02
331.00	15733.86
332.00	15093.33
333.00	14576.08
334.00	14416.92
335.00	14624.45
336.00	15215.04
337.00	16404.81
338.00	18086.10
339.00	19887.53
340.00	21366.75
341.00	21987.77
342.00	21859.82
343.00	21418.24
344.00	20925.17
345.00	20964.18
346.00	21283.27
347.00	21840.32
348.00	22195.30
349.00	22001.82
350.00	21266.89
351.00	20378.26
352.00	19801.71
353.00	19839.16
354.00	20209.75
355.00	20748.85
356.00	21394.84
357.00	21960.47
358.00	22162.53
359.00	22317.79
360.00	22387.22
361.00	22991.08
362.00	23323.44
363.00	23885.95
364.00	24082.55
365.00	24258.87
366.00	24151.99
367.00	24031.06
368.00	23768.92
369.00	23290.67
370.00	23030.87
371.00	22782.77
372.00	22636.88
373.00	22104.02
374.00	21512.64
375.00	21108.51
376.00	20927.51
377.00	21138.16
378.00	21472.85
379.00	22057.21
380.00	22727.38
381.00	23358.55
382.00	23769.70
383.00	23974.11
384.00	23901.55
385.00	23718.21
386.00	23516.14
387.00	23732.25
388.00	24093.47
389.00	24765.99
390.00	25361.26
391.00	25913.63
392.00	26167.97
393.00	26451.17
394.00	26764.81
395.00	27076.10
396.00	27307.03
397.00	27544.98
398.00	27762.65
399.00	27821.17
400.00	27575.41
401.00	27511.44
402.00	27431.86
403.00	27835.99
404.00	28026.35
405.00	28146.50
406.00	28141.04
407.00	28069.26
408.00	27743.93
409.00	27649.53
410.00	27725.21
411.00	28101.25
412.00	27574.63
413.00	26899.00
414.00	26079.81
415.00	25847.32
416.00	25713.13
417.00	25886.32
418.00	26213.22
419.00	26587.71
420.00	26980.14
421.00	27419.38
422.00	27928.83
423.00	28413.32
424.00	28712.91
425.00	28879.87
426.00	28843.20
427.00	28546.73
428.00	28318.92
429.00	28256.51
430.00	28492.12
431.00	28522.55
432.00	28486.66
433.00	28248.71
434.00	28371.97
435.00	28616.17
436.00	28941.50
437.00	29252.80
438.00	29431.46
439.00	29828.57
440.00	30210.07
441.00	30717.97
442.00	30874.79
443.00	30891.95
444.00	30698.47
445.00	30556.47
446.00	30134.40
447.00	30022.05
448.00	29771.61
449.00	29825.45
450.00	29551.60
451.00	29358.12
452.00	28719.93
453.00	28136.36
454.00	27537.18
455.00	27473.21
456.00	27743.15
457.00	28261.19
458.00	28698.09
459.00	28867.39
460.00	29182.58
461.00	29266.84
462.00	29523.52
463.00	29371.38
464.00	29426.78
465.00	29298.05
466.00	29309.75
467.00	29514.16
468.00	29672.53
469.00	30242.06
470.00	30543.99
471.00	30904.43
472.00	30783.51
473.00	30774.14
474.00	30956.71
475.00	31177.50
476.00	31486.45
477.00	31715.82
478.00	31804.76
479.00	31803.20
480.00	31385.02
481.00	31231.33
482.00	30600.94
483.00	30213.98
484.00	30197.59
485.00	30500.30
486.00	30836.56
487.00	30778.04
488.00	30814.71
489.00	30789.75
490.00	30795.99
491.00	30729.67
492.00	30803.01
493.00	30793.65
494.00	30913.02
495.00	31063.59
496.00	31359.28
497.00	31725.18
498.00	32058.32
499.00	32102.01
500.00	32044.27
501.00	31967.04
502.00	32121.51
503.00	32451.53
504.00	32687.92
505.00	32988.29
506.00	32924.32
507.00	33141.21
508.00	32995.31
509.00	32925.88
510.00	32736.29
511.00	32627.07
512.00	32613.02
513.00	32519.40
514.00	32376.63
515.00	32241.66
516.00	32051.30
517.00	31782.13
518.00	31481.77
519.00	31101.82
520.00	31275.02
521.00	31388.14
522.00	31636.24
523.00	31984.98
524.00	32208.11
525.00	32630.97
526.00	32266.63
527.00	31897.60
528.00	31062.03
529.00	30526.05
530.00	30342.70
531.00	30493.28
532.00	30910.68
533.00	31172.03
534.00	31297.64
535.00	31472.40
536.00	31416.23
537.00	31387.36
538.00	31310.91
539.00	31470.06
540.00	31681.49
541.00	31831.29
542.00	31820.36
543.00	32026.33
544.00	32009.17
545.00	32097.33
546.00	31596.45
547.00	31278.14
548.00	30861.52
549.00	31002.74
550.00	31044.87
551.00	31299.20
552.00	31249.27
553.00	31415.45
554.00	31538.72
555.00	32239.32
556.00	32743.31
557.00	33345.61
558.00	33661.58
559.00	33990.04
560.00	34275.59
561.00	34233.46
562.00	33896.42
563.00	33354.19
564.00	33017.94
565.00	33098.30
566.00	33398.66
567.00	33429.87
568.00	33479.02
569.00	33368.24
570.00	33834.00
571.00	34362.97
572.00	34873.98
573.00	34896.61
574.00	34781.14
575.00	34650.07
576.00	34846.68
577.00	34835.75
578.00	34895.83
579.00	34532.26
580.00	34461.27
581.00	34355.16
582.00	34459.71
583.00	34418.36
584.00	34688.30
585.00	35044.06
586.00	35771.97
587.00	36062.97
588.00	36477.25
589.00	36891.52
590.00	37389.28
591.00	37821.50
592.00	37982.99
593.00	38096.12
594.00	38061.01
595.00	37886.25
596.00	37949.45
597.00	38121.87
598.00	38769.41
599.00	39379.51
600.00	39898.33
601.00	39866.34
602.00	39733.71
603.00	39773.50
604.00	39985.71
605.00	40431.97
606.00	40412.47
607.00	40558.36
608.00	40633.26
609.00	40989.02
610.00	41191.87
611.00	41467.27
612.00	41789.48
613.00	42212.34
614.00	42329.37
615.00	42362.92
616.00	42317.67
617.00	42310.64
618.00	42474.48
619.00	42835.70
620.00	43036.99
621.00	43250.76
622.00	43334.24
623.00	43605.74
624.00	43550.35
625.00	43459.85
626.00	43370.91
627.00	43519.92
628.00	43531.62
629.00	44010.65
630.00	44325.85
631.00	44190.87
632.00	43403.67
633.00	42485.40
634.00	41331.52
635.00	39594.84
636.00	37765.32
637.00	36853.30
638.00	37213.74
639.00	38469.83
640.00	39969.33
641.00	41126.33
642.00	42005.59
643.00	42755.35
644.00	43761.00
645.00	44598.91
646.00	45344.76
647.00	45952.52
648.00	46419.84
649.00	46862.21
650.00	46796.67
651.00	46713.19
652.00	46147.56
653.00	46018.05
654.00	46388.64
655.00	47473.87
656.00	48587.18
657.00	49385.30
658.00	49789.44
659.00	50249.74
660.00	50444.79
661.00	50449.47
662.00	50173.28
663.00	50025.83
664.00	49919.73
665.00	49854.19
666.00	49925.19
667.00	49731.70
668.00	49311.97
669.00	48471.71
670.00	48023.11
671.00	48019.99
672.00	48751.80
673.00	49671.63
674.00	50641.39
675.00	51256.17
676.00	51651.72
677.00	51626.76
678.00	51258.51
679.00	50926.94
680.00	50962.82
681.00	51388.02
682.00	51966.13
683.00	52500.56
684.00	52973.34
685.00	53323.64
686.00	53546.00
687.00	53635.72
688.00	53503.87
689.00	53180.87
690.00	52750.21
691.00	52605.88
692.00	52694.04
693.00	53215.20
694.00	53704.37
695.00	54103.82
696.00	54120.99
697.00	54073.40
698.00	54135.03
699.00	54305.89
700.00	54416.68
701.00	54410.43
702.00	54184.18
703.00	53777.71
704.00	53229.24
705.00	52844.62
706.00	52755.68
707.00	53019.38
708.00	53425.85
709.00	53911.90
710.00	54195.88
711.00	54588.31
712.00	54717.04
713.00	54886.34
714.00	54757.61
715.00	54497.03
716.00	53911.90
717.00	53508.55
718.00	53109.10
719.00	53153.57
720.00	53022.50
721.00	52979.59
722.00	52708.86
723.00	52587.16
724.00	52580.13
725.00	52633.19
726.00	52724.47
727.00	53074.77
728.00	53454.72
729.00	53835.44
730.00	53983.68
731.00	54198.23
732.00	54311.35
733.00	54452.56
734.00	54453.34
735.00	54281.70
736.00	53910.34
737.00	53381.38
738.00	52995.97
739.00	53021.72
740.00	53454.72
741.00	54045.31
742.00	54403.41
743.00	54450.22
744.00	54570.37
745.00	54823.93
746.00	55242.88
747.00	55641.56
748.00	55954.41
749.00	56150.23
750.00	56074.55
751.00	55770.28
752.00	55587.72
753.00	55411.40
754.00	55434.03
755.00	55211.68
756.00	55104.79
757.00	54912.09
758.00	54802.08
759.00	54568.81
760.00	54251.28
761.00	54124.11
762.00	54197.44
763.00	54546.97
764.00	54952.66
765.00	55378.64
766.00	55796.03
767.00	56130.73
768.00	56294.56
769.00	56139.31
770.00	55869.37
771.00	55636.09
772.00	55596.31
773.00	55597.87
774.00	55589.28
775.00	55549.49
776.00	55524.53
777.00	55579.14
778.00	55698.51
779.00	55998.10
780.00	56287.54
781.00	56648.77
782.00	56788.42
783.00	56771.25
784.00	56527.06
785.00	56135.41
786.00	55686.03
787.00	55356.79
788.00	55254.59
789.00	55457.43
790.00	55545.59
791.00	55609.57
792.00	55518.29
793.00	55397.36
794.00	55214.80
795.00	54957.34
796.00	55025.99
797.00	55009.61
798.00	55203.10
799.00	55231.18
800.00	55388.78
801.00	55401.26
802.00	55479.28
803.00	55583.82
804.00	55764.04
805.00	56001.22
806.00	56144.77
807.00	55868.59
808.00	55131.32
809.00	53944.67
810.00	52718.23
811.00	51441.85
812.00	50273.15
813.00	49667.73
814.00	50026.61
815.00	51333.41
816.00	52757.24
817.00	53578.76
818.00	53602.95
819.00	53034.20
820.00	52346.86
821.00	52081.60
822.00	52357.78
823.00	52965.54
824.00	53523.37
825.00	54103.82
826.00	54526.68
827.00	54964.36
828.00	55256.93
829.00	55631.41
830.00	55806.17
831.00	55808.51
832.00	55729.72
833.00	55516.73
834.00	55547.15
835.00	55434.81
836.00	55695.39
837.00	55878.73
838.00	56128.39
839.00	56226.69
840.00	56216.55
841.00	56330.45
842.00	56435.78
843.00	56342.94
844.00	55892.77
845.00	55366.15
846.00	55052.52
847.00	54909.75
848.00	54955.00
849.00	55199.19
850.00	55590.84
851.00	56070.65
852.00	56389.75
853.00	56727.56
854.00	56860.97
855.00	57034.95
856.00	57034.17
857.00	56936.65
858.00	56759.55
859.00	56548.90
860.00	56505.99
861.00	56466.20
862.00	56635.50
863.00	56718.98
864.00	56555.14
865.00	56060.51
866.00	55189.83
867.00	54299.65
868.00	53321.30
869.00	52761.92
870.00	52473.25
871.00	52797.80
872.00	53189.45
873.00	53873.67
874.00	54529.02
875.00	55125.86
876.00	55498.00
877.00	55599.43
878.00	55696.95
879.00	55960.65
880.00	56410.03
881.00	56833.67
882.00	57057.58
883.00	57099.71
884.00	56938.21
885.00	56571.53
886.00	56200.94
887.00	55984.05
888.00	55947.39
889.00	55985.61
890.00	56226.69
891.00	56406.91
892.00	56786.86
893.00	56853.95
894.00	57004.53
895.00	56910.91
896.00	56880.48
897.00	56692.46
898.00	56492.73
899.00	56339.04
900.00	56073.77
901.00	55689.15
902.00	55107.91
903.00	54551.65
904.00	54140.49
905.00	54067.16
906.00	54213.05
907.00	54666.33
908.00	55054.86
909.00	55657.94
910.00	55789.79
911.00	55838.16
912.00	55552.62
913.00	55496.44
914.00	55338.85
915.00	55402.82
916.00	55387.22
917.00	55593.18
918.00	55859.23
919.00	56072.99
920.00	56329.67
921.00	56466.20
922.00	56685.43
923.00	56590.25
924.00	56384.29
925.00	56012.92
926.00	55664.96
927.00	55167.21
928.00	54635.91
929.00	54365.18
930.00	54392.49
931.00	54577.39
932.00	54981.52
933.00	55226.50
934.00	55459.77
935.00	55379.42
936.00	55345.87
937.00	55379.42
938.00	55348.21
939.00	55405.16
940.00	55314.66
941.00	55027.56
942.00	54692.08
943.00	54405.75
944.00	54249.72
945.00	54038.29
946.00	53902.54
947.00	53741.04
948.00	53744.94
949.00	53400.88
950.00	53311.94
951.00	53134.06
952.00	53196.48
953.00	53244.85
954.00	53410.24
955.00	53782.39
956.00	54092.12
957.00	54316.81
958.00	54384.69
959.00	54501.71
960.00	54404.97
961.00	54257.52
962.00	54111.63
963.00	54068.72
964.00	54121.77
965.00	53918.14
966.00	53962.61
967.00	54013.32
968.00	54241.92
969.00	54426.04
970.00	54827.83
971.00	55230.40
972.00	55328.70
973.00	55038.48
974.00	54740.45
975.00	54703.00
976.00	54570.37
977.00	54533.70
978.00	54346.46
979.00	54411.99
980.00	54342.56
981.00	54504.06
982.00	54460.37
983.00	54471.29
984.00	54211.49
985.00	54151.41
986.00	54082.76
987.00	54042.97
988.00	54163.12
989.00	54046.09
990.00	54056.23
991.00	53592.03
992.00	53337.69
993.00	52926.53
994.00	53059.94
995.00	53227.68
996.00	53589.69
997.00	53872.11
998.00	54168.58
999.00	54291.85
1000.00	54211.49
1001.00	54220.07
1002.00	54094.46
1003.00	54064.81
1004.00	54053.89
1005.00	54090.56
1006.00	54138.15
1007.00	53904.10
1008.00	53821.40
1009.00	53680.19
1010.00	53696.57
1011.00	53639.62
1012.00	53606.85
1013.00	53392.30
1014.00	53328.33
1015.00	53357.19
1016.00	53430.53
1017.00	53767.57
1018.00	53911.90
1019.00	54238.01
1020.00	53982.90
1021.00	53794.09
1022.00	53478.90
1023.00	53159.81
1024.00	52943.70
1025.00	52861.78
1026.00	53155.13
1027.00	53404.78
1028.00	53551.46
1029.00	53517.13
1030.00	53427.41
1031.00	53623.23
1032.00	53666.14
1033.00	53920.48
1034.00	53819.06
1035.00	53956.37
1036.00	53904.10
1037.00	53894.74
1038.00	53783.95
1039.00	53603.73
1040.00	53457.06
1041.00	53345.49
1042.00	53119.24
1043.00	52995.97
1044.00	52976.47
1045.00	52939.02
1046.00	52763.48
1047.00	52443.60
1048.00	52236.86
1049.00	52148.70
1050.00	52214.23
1051.00	52262.60
1052.00	52324.24
1053.00	52403.81
1054.00	52545.81
1055.00	52525.52
1056.00	52300.83
1057.00	51897.48
1058.00	51468.38
1059.00	50933.18
1060.00	50700.68
1061.00	50522.80
1062.00	50679.62
1063.00	50873.88
1064.00	51126.66
1065.00	51192.98
1066.00	50969.85
1067.00	50859.84
1068.00	50887.15
1069.00	51270.22
1070.00	51637.68
1071.00	52176.78
1072.00	52542.69
1073.00	52705.74
1074.00	52452.97
1075.00	51989.54
1076.00	51530.01
1077.00	51153.97
1078.00	50962.04
1079.00	51023.68
1080.00	51047.08
1081.00	51161.77
1082.00	51150.07
1083.00	51200.78
1084.00	51309.22
1085.00	51461.36
1086.00	51607.25
1087.00	51544.06
1088.00	51377.88
1089.00	51280.36
1090.00	51139.14
1091.00	51018.22
1092.00	50884.81
1093.00	50768.56
1094.00	50914.45
1095.00	50906.65
1096.00	51056.45
1097.00	50900.41
1098.00	50707.71
1099.00	50557.91
1100.00	50271.59
1101.00	49996.96
1102.00	49549.14
1103.00	49291.68
1104.00	49326.79
1105.00	49524.18
1106.00	49627.94
1107.00	49732.48
1108.00	49876.82
1109.00	50093.71
1110.00	50373.01
1111.00	50429.96
1112.00	50578.20
1113.00	50564.15
1114.00	50479.11
1115.00	50156.12
1116.00	49645.10
1117.00	49245.65
1118.00	48845.42
1119.00	48700.31
1120.00	48516.96
1121.00	48531.79
1122.00	48552.85
1123.00	48636.33
1124.00	48807.19
1125.00	48623.85
1126.00	48669.88
1127.00	48548.95
1128.00	48546.61
1129.00	48236.10
1130.00	47927.15
1131.00	47564.37
1132.00	47178.96
1133.00	46773.27
1134.00	46603.19
1135.00	46635.95
1136.00	46739.72
1137.00	47019.80
1138.00	47255.42
1139.00	47728.98
1140.00	47952.12
1141.00	48190.85
1142.00	48207.23
1143.00	48323.48
1144.00	48363.27
1145.00	48413.20
1146.00	48373.41
1147.00	48317.24
1148.00	48163.54
1149.00	48044.96
1150.00	47952.12
1151.00	47857.71
1152.00	47847.57
1153.00	47834.31
1154.00	47704.02
1155.00	47335.77
1156.00	46878.59
1157.00	46684.33
1158.00	46459.63
1159.00	46401.12
1160.00	46146.78
1161.00	46102.31
1162.00	45989.97
1163.00	45855.00
1164.00	45715.34
1165.00	45786.34
1166.00	45864.36
1167.00	45954.08
1168.00	45961.88
1169.00	46185.79
1170.00	46224.80
1171.00	46231.82
1172.00	46009.47
1173.00	45841.73
1174.00	45709.88
1175.00	45567.11
1176.00	45369.72
1177.00	44968.71
1178.00	44598.91
1179.00	44349.25
1180.00	44394.50
1181.00	44489.68
1182.00	44712.81
1183.00	44806.44
1184.00	44910.20
1185.00	44978.86
1186.00	44963.25
1187.00	45280.00
1188.00	45525.76
1189.00	45671.65
1190.00	45655.27
1191.00	45609.24
1192.00	45385.33
1193.00	45228.51
1194.00	45120.07
1195.00	45350.22
1196.00	45357.24
1197.00	45291.71
1198.00	45303.41
1199.00	45311.21
1200.00	45614.70
1201.00	45740.31
1202.00	45862.02
1203.00	45961.88
1204.00	45927.55
1205.00	46133.52
1206.00	46071.10
1207.00	46120.26
1208.00	46006.35
1209.00	45947.84
1210.00	45984.51
1211.00	45865.92
1212.00	45823.79
1213.00	45615.48
1214.00	45648.25
1215.00	45461.01
1216.00	45330.72
1217.00	45242.56
1218.00	45231.63
1219.00	45237.09
1220.00	45103.68
1221.00	44764.31
1222.00	44588.77
1223.00	44302.44
1224.00	44102.71
1225.00	43656.45
1226.00	43545.67
1227.00	43448.14
1228.00	43468.43
1229.00	43270.26
1230.00	43435.66
1231.00	43499.64
1232.00	43892.85
1233.00	44096.47
1234.00	44277.47
1235.00	44127.68
1236.00	44010.65
1237.00	43936.54
1238.00	43822.63
1239.00	43621.34
1240.00	43240.62
1241.00	42777.97
1242.00	42149.93
1243.00	41269.89
1244.00	39876.49
1245.00	38667.21
1246.00	37782.49
1247.00	37461.05
1248.00	37026.49
1249.00	37223.10
1250.00	37564.82
1251.00	38455.78
1252.00	39026.87
1253.00	39892.87
1254.00	40558.36
1255.00	41222.30
1256.00	41737.99
1257.00	41838.64
1258.00	41926.80
1259.00	41584.30
1260.00	41454.01
1261.00	41198.11
1262.00	41077.96
1263.00	41023.35
1264.00	40999.16
1265.00	41030.37
1266.00	40942.99
1267.00	41035.05
1268.00	41241.02
1269.00	41454.01
1270.00	41211.37
1271.00	41189.53
1272.00	41199.67
1273.00	41478.97
1274.00	41404.08
1275.00	41435.28
1276.00	41095.13
1277.00	40805.68
1278.00	40351.62
1279.00	40226.79
1280.00	39871.03
1281.00	39760.24
1282.00	39754.00
1283.00	39920.18
1284.00	39958.41
1285.00	40012.24
1286.00	40154.23
1287.00	40251.75
1288.00	40357.86
1289.00	40562.26
1290.00	40708.94
1291.00	40801.78
1292.00	40862.63
1293.00	41036.61
1294.00	40952.35
1295.00	40805.68
1296.00	40631.70
1297.00	40641.06
1298.00	40728.44
1299.00	40562.26
1300.00	40438.22
1301.00	40221.33
1302.00	40173.74
1303.00	39973.23
1304.00	39949.04
1305.00	39942.02
1306.00	39882.73
1307.00	39687.68
1308.00	39546.47
1309.00	39782.09
1310.00	39880.39
1311.00	39990.39
1312.00	40108.20
1313.00	40178.42
1314.00	40013.02
1315.00	39808.61
1316.00	39738.40
1317.00	39752.44
1318.00	39564.42
1319.00	39380.29
1320.00	39327.24
1321.00	39353.77
1322.00	39365.47
1323.00	39239.08
1324.00	39211.78
1325.00	39048.72
1326.00	38962.12
1327.00	38784.24
1328.00	38696.08
1329.00	38672.67
1330.00	38638.34
1331.00	38759.27
1332.00	38733.53
1333.00	38856.01
1334.00	38955.10
1335.00	39132.20
1336.00	39349.09
1337.00	39484.06
1338.00	39415.40
1339.00	39343.63
1340.00	39175.11
1341.00	39199.29
1342.00	39227.38
1343.00	39438.03
1344.00	39383.41
1345.00	39452.07
1346.00	39140.00
1347.00	39356.11
1348.00	39079.14
1349.00	39054.18
1350.00	38760.83
1351.00	38817.00
1352.00	38836.51
1353.00	38850.55
1354.00	38625.86
1355.00	38529.12
1356.00	38405.07
1357.00	38417.55
1358.00	38291.16
1359.00	38388.69
1360.00	38330.17
1361.00	38391.03
1362.00	38355.14
1363.00	38352.02
1364.00	38142.15
1365.00	38000.94
1366.00	37849.58
1367.00	37951.01
1368.00	37781.71
1369.00	37610.07
1370.00	37351.83
1371.00	37192.67
1372.00	37170.83
1373.00	37068.62
1374.00	36929.75
1375.00	36882.94
1376.00	36994.51
1377.00	37110.75
1378.00	37131.04
1379.00	36843.15
1380.00	36595.06
1381.00	36270.50
1382.00	36176.88
1383.00	36204.19
1384.00	36157.38
1385.00	36367.24
1386.00	36455.40
1387.00	36618.46
1388.00	36611.44
1389.00	36584.91
1390.00	36620.02
1391.00	36400.79
1392.00	36357.10
1393.00	36001.34
1394.00	35906.94
1395.00	35704.09
1396.00	35825.02
1397.00	35861.69
1398.00	35976.37
1399.00	36040.35
1400.00	35972.47
1401.00	35657.28
1402.00	35273.43
1403.00	34923.13
1404.00	34848.24
1405.00	34711.70
1406.00	34765.54
1407.00	34793.62
1408.00	34961.36
1409.00	35095.55
1410.00	35232.86
1411.00	35266.41
1412.00	35233.64
1413.00	35046.40
1414.00	35019.10
1415.00	34973.84
1416.00	34760.86
1417.00	34272.46
1418.00	33774.71
1419.00	33383.06
1420.00	33163.05
1421.00	32978.93
1422.00	33052.27
1423.00	33199.72
1424.00	33238.73
1425.00	33300.36
1426.00	33429.09
1427.00	33720.88
1428.00	33784.07
1429.00	33869.11
1430.00	33880.81
1431.00	34030.61
1432.00	34127.35
1433.00	34267.78
1434.00	34306.01
1435.00	34208.49
1436.00	34148.42
1437.00	33981.46
1438.00	33804.36
1439.00	33490.73
1440.00	33470.44
1441.00	33509.45
1442.00	33766.13
1443.00	33736.48
1444.00	33716.20
1445.00	33774.71
1446.00	33844.15
1447.00	33930.75
1448.00	33710.74
1449.00	33752.87
1450.00	33823.08
1451.00	33912.80
1452.00	33642.08
1453.00	33303.48
1454.00	32983.61
1455.00	32790.91
1456.00	32680.12
1457.00	32609.12
1458.00	32684.80
1459.00	32740.19
1460.00	32771.40
1461.00	32588.06
1462.00	32371.95
1463.00	32097.33
1464.00	32052.86
1465.00	31978.74
1466.00	31886.68
1467.00	31714.26
1468.00	31643.26
1469.00	31645.60
1470.00	31722.84
1471.00	31619.86
1472.00	31517.65
1473.00	31276.58
1474.00	31036.28
1475.00	30850.60
1476.00	30871.67
1477.00	30852.16
1478.00	30752.30
1479.00	30622.01
1480.00	30516.68
1481.00	30359.09
1482.00	30227.24
1483.00	30235.04
1484.00	30387.18
1485.00	30335.68
1486.00	30406.68
1487.00	30563.50
1488.00	30757.76
1489.00	30750.74
1490.00	30604.84
1491.00	30622.79
1492.00	30544.77
1493.00	30270.93
1494.00	29670.19
1495.00	28929.02
1496.00	28251.05
1497.00	27793.86
1498.00	27662.01
1499.00	27873.44
1500.00	28326.72
1501.00	28646.60
1502.00	28874.41
1503.00	28784.69
1504.00	28899.37
1505.00	29001.58
1506.00	29026.54
1507.00	28793.27
1508.00	28556.10
1509.00	28464.82
1510.00	28439.07
1511.00	28226.86
1512.00	28116.86
1513.00	28093.45
1514.00	28382.90
1515.00	28425.81
1516.00	28637.23
1517.00	28661.42
1518.00	28734.76
1519.00	28536.59
1520.00	28315.02
1521.00	28138.70
1522.00	27908.55
1523.00	27803.22
1524.00	27836.77
1525.00	28058.34
1526.00	28254.95
1527.00	28266.65
1528.00	28483.54
1529.00	28481.98
1530.00	28614.61
1531.00	28435.95
1532.00	28422.69
1533.00	28302.54
1534.00	28170.69
1535.00	28029.48
1536.00	27963.94
1537.00	27974.86
1538.00	27861.74
1539.00	27906.21
1540.00	28031.82
1541.00	28206.58
1542.00	28279.91
1543.00	28358.71
1544.00	28393.04
1545.00	28399.28
1546.00	28387.58
1547.00	28280.69
1548.00	28268.21
1549.00	28023.23
1550.00	27911.67
1551.00	27694.00
1552.00	27465.41
1553.00	27484.91
1554.00	27563.71
1555.00	27780.60
1556.00	27847.69
1557.00	27845.35
1558.00	28001.39
1559.00	28137.14
1560.00	28183.95
1561.00	28206.58
1562.00	28239.34
1563.00	28246.37
1564.00	28161.33
1565.00	27999.83
1566.00	27884.36
1567.00	27790.74
1568.00	27851.59
1569.00	27887.48
1570.00	27790.74
1571.00	27634.71
1572.00	27605.84
1573.00	27528.60
1574.00	27343.70
1575.00	27072.20
1576.00	27083.90
1577.00	26958.29
1578.00	26929.42
1579.00	26799.13
1580.00	26840.48
1581.00	26788.21
1582.00	26643.10
1583.00	26574.44
1584.00	26477.70
1585.00	26433.23
1586.00	26365.35
1587.00	26372.38
1588.00	26444.93
1589.00	26448.05
1590.00	26416.85
1591.00	26277.19
1592.00	26190.59
1593.00	26164.85
1594.00	26207.76
1595.00	26152.37
1596.00	26236.63
1597.00	26284.22
1598.00	26356.77
1599.00	26199.96
1600.00	25993.99
1601.00	25888.67
1602.00	25876.18
1603.00	25846.54
1604.00	25870.72
1605.00	25816.11
1606.00	25939.38
1607.00	25919.87
1608.00	25894.13
1609.00	25787.24
1610.00	25632.77
1611.00	25635.89
1612.00	25588.30
1613.00	25630.43
1614.00	25426.02
1615.00	25229.41
1616.00	25014.09
1617.00	24914.22
1618.00	24826.06
1619.00	24789.39
1620.00	24826.06
1621.00	24880.67
1622.00	24838.55
1623.00	24705.91
1624.00	24638.82
1625.00	24624.78
1626.00	24602.93
1627.00	24435.19
1628.00	24237.81
1629.00	24031.84
1630.00	24076.31
1631.00	24021.70
1632.00	24102.06
1633.00	23907.79
1634.00	23995.17
1635.00	23950.70
1636.00	24008.44
1637.00	23986.59
1638.00	23939.00
1639.00	23910.91
1640.00	23661.26
1641.00	23481.03
1642.00	23114.35
1643.00	22877.18
1644.00	22777.31
1645.00	22870.15
1646.00	23225.14
1647.00	23338.26
1648.00	23720.55
1649.00	23892.19
1650.00	24155.11
1651.00	24123.12
1652.00	24111.42
1653.00	24065.39
1654.00	23985.81
1655.00	23757.22
1656.00	23441.25
1657.00	23229.82
1658.00	23048.82
1659.00	23052.72
1660.00	23023.85
1661.00	23163.50
1662.00	23268.05
1663.00	23353.87
1664.00	23409.26
1665.00	23502.88
1666.00	23562.95
1667.00	23608.98
1668.00	23616.79
1669.00	23619.91
1670.00	23469.33
1671.00	23452.95
1672.00	23374.15
1673.00	23474.01
1674.00	23358.55
1675.00	23260.24
1676.00	23013.71
1677.00	22816.32
1678.00	22632.20
1679.00	22608.79
1680.00	22573.69
1681.00	22526.10
1682.00	22261.62
1683.00	21958.91
1684.00	21610.95
1685.00	21237.24
1686.00	20565.51
1687.00	19917.96
1688.00	19109.69
1689.00	18520.66
1690.00	18086.88
1691.00	18143.83
1692.00	18551.09
1693.00	19148.70
1694.00	19732.28
1695.00	20343.16
1696.00	20802.68
1697.00	21208.37
1698.00	21453.35
1699.00	21754.50
1700.00	21921.46
1701.00	22146.15
1702.00	22300.62
1703.00	22293.60
1704.00	22167.21
1705.00	22099.34
1706.00	22209.34
1707.00	22170.33
1708.00	22029.90
1709.00	21813.01
1710.00	21839.54
1711.00	21753.72
1712.00	21731.87
1713.00	21756.06
1714.00	21802.09
1715.00	21855.14
1716.00	21840.32
1717.00	21787.27
1718.00	21806.77
1719.00	21784.93
1720.00	21917.56
1721.00	21794.29
1722.00	21764.64
1723.00	21644.49
1724.00	21748.26
1725.00	21721.73
1726.00	21756.06
1727.00	21835.64
1728.00	21823.16
1729.00	21779.46
1730.00	21633.57
1731.00	21610.95
1732.00	21543.07
1733.00	21501.72
1734.00	21478.32
1735.00	21429.16
1736.00	21332.42
1737.00	21106.17
1738.00	20910.35
1739.00	20797.22
1740.00	20765.23
1741.00	20805.02
1742.00	20808.14
1743.00	20866.66
1744.00	20780.84
1745.00	20732.47
1746.00	20675.51
1747.00	20751.19
1748.00	20726.22
1749.00	20699.70
1750.00	20644.31
1751.00	20629.48
1752.00	20646.65
1753.00	20581.89
1754.00	20565.51
1755.00	20495.29
1756.00	20458.62
1757.00	20361.10
1758.00	20279.18
1759.00	20143.43
1760.00	20050.59
1761.00	19836.82
1762.00	19907.04
1763.00	20003.78
1764.00	20055.27
1765.00	19953.85
1766.00	19880.51
1767.00	19776.75
1768.00	19798.59
1769.00	19642.56
1770.00	19693.27
1771.00	19601.21
1772.00	19588.72
1773.00	19598.87
1774.00	19575.46
1775.00	19463.11
1776.00	19417.86
1777.00	19381.20
1778.00	19557.52
1779.00	19533.33
1780.00	19470.14
1781.00	19343.75
1782.00	19293.04
1783.00	19206.44
1784.00	19096.43
1785.00	19032.46
1786.00	18954.44
1787.00	18910.75
1788.00	18863.94
1789.00	18910.75
1790.00	18922.45
1791.00	18799.96
1792.00	18745.35
1793.00	18606.48
1794.00	18544.84
1795.00	18473.85
1796.00	18386.47
1797.00	18300.65
1798.00	18150.85
1799.00	18169.58
1800.00	18125.11
1801.00	18255.40
1802.00	18267.88
1803.00	18232.77
1804.00	18064.25
1805.00	17971.41
1806.00	18061.91
1807.00	18031.49
1808.00	18036.95
1809.00	17985.46
1810.00	18019.78
1811.00	17954.25
1812.00	17870.77
1813.00	17803.68
1814.00	17590.69
1815.00	17516.57
1816.00	17408.12
1817.00	17521.25
1818.00	17376.92
1819.00	17348.83
1820.00	17170.95
1821.00	17270.81
1822.00	17213.86
1823.00	17243.51
1824.00	17081.23
1825.00	17113.22
1826.00	17062.51
1827.00	17091.37
1828.00	17065.63
1829.00	17152.23
1830.00	17002.43
1831.00	16905.69
1832.00	16834.69
1833.00	16820.65
1834.00	16719.23
1835.00	16566.31
1836.00	16440.70
1837.00	16407.16
1838.00	16378.29
1839.00	16430.56
1840.00	16407.16
1841.00	16363.47
1842.00	16404.03
1843.00	16290.13
1844.00	16264.38
1845.00	16141.89
1846.00	16020.97
1847.00	15893.02
1848.00	15818.90
1849.00	15785.35
1850.00	15765.85
1851.00	15653.50
1852.00	15631.66
1853.00	15483.42
1854.00	15490.45
1855.00	15463.92
1856.00	15484.98
1857.00	15447.54
1858.00	15374.20
1859.00	15318.81
1860.00	15282.14
1861.00	15274.34
1862.00	15230.65
1863.00	15132.34
1864.00	15001.27
1865.00	14842.12
1866.00	14801.55
1867.00	14783.60
1868.00	14840.56
1869.00	14842.12
1870.00	14799.21
1871.00	14718.85
1872.00	14646.29
1873.00	14576.86
1874.00	14607.28
1875.00	14461.39
1876.00	14412.24
1877.00	14247.62
1878.00	14207.83
1879.00	14169.60
1880.00	14159.46
1881.00	14155.56
1882.00	14062.72
1883.00	13952.71
1884.00	13847.39
1885.00	13728.80
1886.00	13640.64
1887.00	13575.89
1888.00	13518.15
1889.00	13449.50
1890.00	13440.92
1891.00	13435.46
1892.00	13352.76
1893.00	13309.07
1894.00	13361.34
1895.00	13366.80
1896.00	13288.00
1897.00	13139.77
1898.00	13122.60
1899.00	13107.78
1900.00	13155.37
1901.00	13046.15
1902.00	12934.58
1903.00	12608.47
1904.00	12228.52
1905.00	11577.07
1906.00	10828.10
1907.00	9976.14
1908.00	9206.89
1909.00	8576.50
1910.00	8152.09
1911.00	7915.69
1912.00	7888.39
1913.00	8159.11
1914.00	8536.71
1915.00	9017.30
1916.00	9460.45
1917.00	9739.75
1918.00	9980.04
1919.00	10014.37
1920.00	10034.66
1921.00	9842.73
1922.00	9728.83
1923.00	9596.98
1924.00	9482.29
1925.00	9447.18
1926.00	9466.69
1927.00	9528.32
1928.00	9500.23
1929.00	9490.09
1930.00	9539.24
1931.00	9612.58
1932.00	9725.71
1933.00	9800.60
1934.00	9854.44
1935.00	9955.08
1936.00	10009.69
1937.00	10087.71
1938.00	10095.51
1939.00	10161.05
1940.00	10187.57
1941.00	10188.35
1942.00	10091.61
1943.00	10074.45
1944.00	10103.31
1945.00	10200.05
1946.00	10239.06
1947.00	10193.03
1948.00	10131.40
1949.00	10084.59
1950.00	9990.97
1951.00	9957.42
1952.00	9864.58
1953.00	9812.31
1954.00	9789.68
1955.00	9709.32
1956.00	9716.34
1957.00	9648.47
1958.00	9660.95
1959.00	9523.64
1960.00	9462.01
1961.00	9345.76
1962.00	9282.56
1963.00	9214.69
1964.00	9255.26
1965.00	9252.14
1966.00	9206.11
1967.00	9153.84
1968.00	9107.80
1969.00	9103.12
1970.00	9053.97
1971.00	9121.07
1972.00	9135.89
1973.00	9123.41
1974.00	9055.53
1975.00	9013.40
1976.00	8994.68
1977.00	9050.85
1978.00	9105.46
1979.00	9144.47
1980.00	9147.59
1981.00	9130.43
1982.00	9172.56
1983.00	9162.42
1984.00	9180.36
1985.00	9124.19
1986.00	8969.71
1987.00	8879.21
1988.00	8806.66
1989.00	8823.04
1990.00	8768.43
1991.00	8648.28
1992.00	8525.79
1993.00	8380.68
1994.00	8377.56
1995.00	8383.80
1996.00	8362.73
1997.00	8224.64
1998.00	8118.54
1999.00	8045.20
2000.00	8022.58
2001.00	7999.17
2002.00	8003.07
2003.00	8024.92
2004.00	7964.06
2005.00	7919.59
2006.00	7852.50
2007.00	7850.94
2008.00	7756.54
2009.00	7640.29
2010.00	7560.71
2011.00	7523.26
2012.00	7567.73
2013.00	7570.85
2014.00	7555.25
2015.00	7494.40
2016.00	7424.96
2017.00	7361.76
2018.00	7262.68
2019.00	7218.99
2020.00	7182.32
2021.00	7253.32
2022.00	7272.82
2023.00	7289.21
2024.00	7202.61
2025.00	7151.12
2026.00	7075.44
2027.00	7088.70
2028.00	7114.45
2029.00	7226.79
2030.00	7240.84
2031.00	7203.39
2032.00	7138.63
2033.00	7098.84
2034.00	7064.52
2035.00	6984.94
2036.00	6873.37
2037.00	6860.89
2038.00	6873.37
2039.00	6883.52
2040.00	6852.31
2041.00	6839.83
2042.00	6878.05
2043.00	6843.73
2044.00	6764.15
2045.00	6679.89
2046.00	6616.69
2047.00	6553.50
>>>>>End Processed Spectral Data<<<<<
