SpectraSuite Data File
++++++++++++++++++++++++++++++++++++
Date: Thu Nov 16 13:32:51 EST 2017
User: cheriyan
Dark Spectrum Present: No
Reference Spectrum Present: No
Number of Sampled Component Spectra: 1
Spectrometers: USB2+H05261
Integration Time (usec): 90000 (USB2+H05261)
Spectra Averaged: 1 (USB2+H05261)
Boxcar Smoothing: 1 (USB2+H05261)
Correct for Electrical Dark: No (USB2+H05261)
Strobe/Lamp Enabled: No (USB2+H05261)
Correct for Detector Non-linearity: No (USB2+H05261)
Correct for Stray Light: No (USB2+H05261)
Number of Pixels in Processed Spectrum: 2048
>>>>>Begin Processed Spectral Data<<<<<
0.00	390.87
1.00	390.87
2.00	351.86
3.00	312.85
4.00	271.50
5.00	262.92
6.00	262.92
7.00	243.42
8.00	252.78
9.00	242.64
10.00	241.08
11.00	241.08
12.00	246.54
13.00	269.94
14.00	282.42
15.00	283.20
16.00	273.84
17.00	257.46
18.00	255.12
19.00	248.10
20.00	269.94
21.00	261.36
22.00	287.89
23.00	707.62
24.00	2372.52
25.00	4202.82
26.00	5570.47
27.00	5714.03
28.00	5539.27
29.00	5370.75
30.00	5179.61
31.00	5138.26
32.00	5162.44
33.00	5245.92
34.00	5196.77
35.00	5078.96
36.00	4830.87
37.00	4652.20
38.00	4578.87
39.00	4672.49
40.00	4827.74
41.00	4874.56
42.00	4827.74
43.00	4748.95
44.00	4826.18
45.00	5036.05
46.00	5406.64
47.00	5609.48
48.00	5760.84
49.00	5790.49
50.00	5767.86
51.00	5728.07
52.00	5760.06
53.00	5902.83
54.00	6118.16
55.00	6260.93
56.00	6522.29
57.00	6725.92
58.00	6998.98
59.00	7250.20
60.00	7407.80
61.00	7432.76
62.00	7268.92
63.00	7091.04
64.00	6775.85
65.00	6473.14
66.00	6215.68
67.00	6078.37
68.00	6016.74
69.00	6009.72
70.00	6199.30
71.00	6470.02
72.00	6722.80
73.00	6853.87
74.00	6924.87
75.00	6893.66
76.00	6759.47
77.00	6491.09
78.00	6177.45
79.00	5858.36
80.00	5579.06
81.00	5383.23
82.00	5155.42
83.00	4947.11
84.00	4741.93
85.00	4647.52
86.00	4574.19
87.00	4538.30
88.00	4521.13
89.00	4621.00
90.00	4841.79
91.00	5237.34
92.00	5710.13
93.00	6125.96
94.00	6393.56
95.00	6533.22
96.00	6567.54
97.00	6530.87
98.00	6360.02
99.00	6155.61
100.00	6013.62
101.00	6079.15
102.00	6302.28
103.00	6531.66
104.00	6647.90
105.00	6631.52
106.00	6565.98
107.00	6509.81
108.00	6555.06
109.00	6600.31
110.00	6619.04
111.00	6523.07
112.00	6491.09
113.00	6516.05
114.00	6654.14
115.00	6803.94
116.00	7096.50
117.00	7474.11
118.00	7827.53
119.00	8122.44
120.00	8283.94
121.00	8388.48
122.00	8411.11
123.00	8462.60
124.00	8577.28
125.00	8766.09
126.00	8992.34
127.00	9322.35
128.00	9489.31
129.00	9547.83
130.00	9355.12
131.00	9074.26
132.00	8638.92
133.00	8209.04
134.00	7651.21
135.00	6986.50
136.00	6156.39
137.00	5385.57
138.00	4858.17
139.00	4665.47
140.00	4871.44
141.00	5454.23
142.00	6165.75
143.00	6994.30
144.00	7663.69
145.00	8408.76
146.00	9020.42
147.00	9585.27
148.00	9885.64
149.00	10121.26
150.00	10093.17
151.00	9910.61
152.00	9317.67
153.00	8585.87
154.00	7661.35
155.00	6757.13
156.00	6059.65
157.00	5792.83
158.00	6063.55
159.00	6848.41
160.00	7950.80
161.00	9082.06
162.00	10249.21
163.00	11071.51
164.00	11800.98
165.00	12216.04
166.00	12726.27
167.00	12981.39
168.00	13263.04
169.00	13443.26
170.00	13685.11
171.00	13714.76
172.00	13731.14
173.00	13935.55
174.00	14080.66
175.00	14216.41
176.00	14227.34
177.00	14398.20
178.00	14646.29
179.00	14926.38
180.00	15109.72
181.00	15257.17
182.00	15282.92
183.00	15377.32
184.00	15372.64
185.00	15399.94
186.00	15382.00
187.00	15352.35
188.00	15218.16
189.00	15051.99
190.00	14882.69
191.00	15044.96
192.00	15318.81
193.00	15696.41
194.00	15672.23
195.00	15481.08
196.00	15240.79
197.00	15148.73
198.00	15337.53
199.00	15405.41
200.00	15510.73
201.00	15381.22
202.00	15341.43
203.00	15276.68
204.00	15119.86
205.00	15066.03
206.00	14953.68
207.00	15086.31
208.00	15251.71
209.00	15438.95
210.00	15610.59
211.00	15527.89
212.00	15515.41
213.00	15619.17
214.00	15967.91
215.00	16276.87
216.00	16589.72
217.00	16852.64
218.00	17160.81
219.00	17412.81
220.00	17504.09
221.00	17380.04
222.00	17037.54
223.00	16431.34
224.00	15854.01
225.00	15278.24
226.00	15137.80
227.00	15372.64
228.00	15800.96
229.00	16311.19
230.00	16825.33
231.00	17327.77
232.00	17855.95
233.00	18155.54
234.00	18304.55
235.00	18387.25
236.00	18522.22
237.00	18538.60
238.00	18524.56
239.00	18347.46
240.00	18299.09
241.00	18109.50
242.00	18112.63
243.00	18203.13
244.00	18538.60
245.00	18763.29
246.00	19003.59
247.00	19037.92
248.00	18993.45
249.00	18888.90
250.00	18907.63
251.00	19078.49
252.00	19165.09
253.00	19109.69
254.00	19194.73
255.00	19396.80
256.00	19868.03
257.00	20228.47
258.00	20505.43
259.00	20495.29
260.00	20368.12
261.00	20215.21
262.00	19974.13
263.00	19710.43
264.00	19425.67
265.00	19381.98
266.00	19517.73
267.00	19775.97
268.00	19889.09
269.00	19852.42
270.00	19842.28
271.00	19945.27
272.00	20297.13
273.00	20521.04
274.00	20497.63
275.00	20376.70
276.00	20020.94
277.00	19791.57
278.00	19459.99
279.00	19691.71
280.00	20210.53
281.00	20804.24
282.00	21320.72
283.00	21635.13
284.00	21913.66
285.00	21927.70
286.00	21958.13
287.00	21589.10
288.00	21230.22
289.00	20626.36
290.00	20103.64
291.00	19577.02
292.00	19445.95
293.00	19697.95
294.00	20257.34
295.00	20597.49
296.00	20780.84
297.00	20638.84
298.00	20680.19
299.00	20675.51
300.00	20826.87
301.00	20609.20
302.00	20525.72
303.00	20357.98
304.00	20364.22
305.00	20379.82
306.00	20206.62
307.00	20056.83
308.00	19793.13
309.00	19890.65
310.00	20013.92
311.00	20308.05
312.00	20411.81
313.00	20355.64
314.00	19776.75
315.00	19101.89
316.00	18782.02
317.00	18968.48
318.00	19338.29
319.00	19648.02
320.00	19909.38
321.00	19940.58
322.00	19687.81
323.00	19481.84
324.00	19347.65
325.00	19207.22
326.00	19041.04
327.00	18802.30
328.00	18405.19
329.00	17625.79
330.00	16837.03
331.00	15926.57
332.00	15191.64
333.00	14644.73
334.00	14480.11
335.00	14768.00
336.00	15333.63
337.00	16574.89
338.00	18268.66
339.00	20200.38
340.00	21632.79
341.00	22194.52
342.00	21831.74
343.00	21195.89
344.00	20719.20
345.00	20820.63
346.00	21326.96
347.00	22047.07
348.00	22585.39
349.00	22487.87
350.00	21700.67
351.00	20573.31
352.00	19826.68
353.00	19741.64
354.00	20329.89
355.00	21042.98
356.00	21754.50
357.00	22155.51
358.00	22338.07
359.00	22467.58
360.00	22522.20
361.00	22857.67
362.00	23194.71
363.00	23878.93
364.00	24169.93
365.00	24371.22
366.00	24082.55
367.00	24029.50
368.00	23714.31
369.00	23448.27
370.00	23119.81
371.00	22927.89
372.00	22831.93
373.00	22438.72
374.00	21830.18
375.00	21268.45
376.00	20964.96
377.00	21123.33
378.00	21500.16
379.00	22179.70
380.00	22874.84
381.00	23584.80
382.00	24094.25
383.00	24294.76
384.00	24125.46
385.00	23737.71
386.00	23546.57
387.00	23611.32
388.00	24014.68
389.00	24695.77
390.00	25472.83
391.00	26062.65
392.00	26339.61
393.00	26543.24
394.00	26873.25
395.00	27126.81
396.00	27371.79
397.00	27609.74
398.00	27732.23
399.00	27942.10
400.00	27783.72
401.00	27675.27
402.00	27498.17
403.00	27686.98
404.00	28031.82
405.00	28191.75
406.00	28279.13
407.00	28166.79
408.00	27894.50
409.00	27853.94
410.00	28054.44
411.00	28210.48
412.00	27845.35
413.00	27183.76
414.00	26590.83
415.00	26132.08
416.00	25946.40
417.00	25930.80
418.00	26260.03
419.00	26576.78
420.00	27083.90
421.00	27628.46
422.00	28057.56
423.00	28435.17
424.00	28812.77
425.00	29079.60
426.00	29057.75
427.00	28606.81
428.00	28410.20
429.00	28431.27
430.00	28516.31
431.00	28503.82
432.00	28289.27
433.00	28283.03
434.00	28457.01
435.00	28633.33
436.00	28954.77
437.00	29097.54
438.00	29518.06
439.00	29811.40
440.00	30518.25
441.00	30838.90
442.00	31158.77
443.00	30869.33
444.00	30763.22
445.00	30455.05
446.00	30253.76
447.00	30165.60
448.00	30081.35
449.00	29972.90
450.00	29685.79
451.00	29331.59
452.00	28700.43
453.00	28130.90
454.00	27633.14
455.00	27663.57
456.00	27962.38
457.00	28584.96
458.00	29016.40
459.00	29393.23
460.00	29525.86
461.00	29692.04
462.00	29665.51
463.00	29532.10
464.00	29371.38
465.00	29358.90
466.00	29411.17
467.00	29724.80
468.00	29871.48
469.00	30294.33
470.00	30622.01
471.00	30905.99
472.00	30967.63
473.00	31042.53
474.00	31232.11
475.00	31344.45
476.00	31302.32
477.00	31640.92
478.00	31819.58
479.00	32152.72
480.00	31726.74
481.00	31466.16
482.00	30825.64
483.00	30388.74
484.00	30305.26
485.00	30572.86
486.00	30970.75
487.00	30955.15
488.00	30884.93
489.00	30894.29
490.00	30774.92
491.00	30617.33
492.00	30703.15
493.00	31027.70
494.00	31305.45
495.00	31388.14
496.00	31668.23
497.00	31995.90
498.00	32177.68
499.00	32235.42
500.00	32214.35
501.00	32351.66
502.00	32364.93
503.00	32485.08
504.00	32624.73
505.00	32802.61
506.00	32886.09
507.00	33030.42
508.00	32968.01
509.00	33032.76
510.00	32847.08
511.00	32758.92
512.00	32667.64
513.00	32560.75
514.00	32552.95
515.00	32400.82
516.00	32183.15
517.00	31907.74
518.00	31663.55
519.00	31477.08
520.00	31714.26
521.00	31778.23
522.00	31825.04
523.00	32002.14
524.00	32224.50
525.00	32687.14
526.00	32325.92
527.00	31885.90
528.00	31206.36
529.00	30774.92
530.00	30615.77
531.00	30678.96
532.00	31058.13
533.00	31334.31
534.00	31580.85
535.00	31761.07
536.00	31760.29
537.00	31515.31
538.00	31474.74
539.00	31635.46
540.00	32005.27
541.00	31892.14
542.00	32017.75
543.00	31988.88
544.00	32018.53
545.00	31846.89
546.00	31427.15
547.00	31258.63
548.00	31060.47
549.00	31210.26
550.00	31129.91
551.00	31189.20
552.00	31328.07
553.00	31533.26
554.00	31693.97
555.00	32105.91
556.00	32613.02
557.00	33255.11
558.00	33694.35
559.00	34125.01
560.00	34450.35
561.00	34409.00
562.00	34007.98
563.00	33436.89
564.00	33016.38
565.00	33282.42
566.00	33482.14
567.00	33621.02
568.00	33553.14
569.00	33532.86
570.00	34032.17
571.00	34469.07
572.00	34900.51
573.00	34879.44
574.00	34822.49
575.00	34794.40
576.00	35030.80
577.00	35008.17
578.00	35029.24
579.00	34821.71
580.00	34772.56
581.00	34678.16
582.00	34625.11
583.00	34540.85
584.00	34811.57
585.00	35238.33
586.00	35991.20
587.00	36301.71
588.00	36474.91
589.00	36719.88
590.00	37126.36
591.00	37876.11
592.00	38222.51
593.00	38410.53
594.00	38200.66
595.00	37849.58
596.00	37782.49
597.00	37962.71
598.00	38648.49
599.00	39267.95
600.00	39801.59
601.00	39817.97
602.00	39903.79
603.00	39867.91
604.00	40098.06
605.00	40381.26
606.00	40415.59
607.00	40638.72
608.00	40739.36
609.00	41131.79
610.00	41384.57
611.00	41682.60
612.00	42018.86
613.00	42444.05
614.00	42527.53
615.00	42729.60
616.00	42594.63
617.00	42766.27
618.00	42802.94
619.00	42879.39
620.00	42896.56
621.00	43001.88
622.00	43271.82
623.00	43718.87
624.00	43682.20
625.00	43598.72
626.00	43344.38
627.00	43498.08
628.00	43530.06
629.00	43921.71
630.00	44318.04
631.00	44378.12
632.00	43565.17
633.00	42654.70
634.00	41262.86
635.00	39710.31
636.00	37872.21
637.00	37203.60
638.00	37572.62
639.00	38679.69
640.00	39917.06
641.00	41087.32
642.00	41840.98
643.00	42634.42
644.00	43552.69
645.00	44555.22
646.00	45452.42
647.00	46139.76
648.00	46681.20
649.00	47026.82
650.00	46839.58
651.00	46624.25
652.00	46141.32
653.00	46110.89
654.00	46718.65
655.00	47765.65
656.00	48880.53
657.00	49461.76
658.00	49947.81
659.00	50160.80
660.00	50404.22
661.00	50285.63
662.00	50273.15
663.00	50096.05
664.00	50060.94
665.00	49879.94
666.00	49932.99
667.00	49741.85
668.00	49239.41
669.00	48563.00
670.00	47992.68
671.00	48114.39
672.00	48677.68
673.00	49677.09
674.00	50604.72
675.00	51303.76
676.00	51514.41
677.00	51399.72
678.00	51065.81
679.00	50910.55
680.00	51006.51
681.00	51370.86
682.00	51887.34
683.00	52433.46
684.00	52995.19
685.00	53465.64
686.00	53808.14
687.00	53773.81
688.00	53540.53
689.00	53081.79
690.00	52763.48
691.00	52580.92
692.00	52705.74
693.00	53099.73
694.00	53591.25
695.00	54020.34
696.00	54103.82
697.00	54175.60
698.00	54300.43
699.00	54319.93
700.00	54543.84
701.00	54604.70
702.00	54571.93
703.00	54077.30
704.00	53510.11
705.00	53049.02
706.00	52875.04
707.00	52946.04
708.00	53490.60
709.00	54063.25
710.00	54526.68
711.00	54862.94
712.00	54934.71
713.00	55021.31
714.00	54787.26
715.00	54432.28
716.00	53965.73
717.00	53670.82
718.00	53404.00
719.00	53348.61
720.00	53237.05
721.00	53247.19
722.00	53119.24
723.00	52974.91
724.00	52824.33
725.00	52840.71
726.00	52796.24
727.00	53253.43
728.00	53428.97
729.00	53851.05
730.00	53867.43
731.00	54092.12
732.00	54326.17
733.00	54571.93
734.00	54659.31
735.00	54439.30
736.00	53957.93
737.00	53499.19
738.00	53173.85
739.00	53314.28
740.00	53542.88
741.00	54131.91
742.00	54475.97
743.00	54806.76
744.00	54888.68
745.00	55121.18
746.00	55345.87
747.00	55725.81
748.00	56062.07
749.00	56326.55
750.00	56194.70
751.00	55874.83
752.00	55686.03
753.00	55506.58
754.00	55452.75
755.00	55314.66
756.00	55274.87
757.00	55109.47
758.00	54869.18
759.00	54454.12
760.00	54234.89
761.00	54117.09
762.00	54367.52
763.00	54732.65
764.00	55141.46
765.00	55564.32
766.00	55877.17
767.00	56187.68
768.00	56263.36
769.00	56179.10
770.00	55966.89
771.00	55690.71
772.00	55624.39
773.00	55636.09
774.00	55652.48
775.00	55563.54
776.00	55538.57
777.00	55657.16
778.00	55874.83
779.00	56237.61
780.00	56463.08
781.00	56775.16
782.00	56872.68
783.00	56907.79
784.00	56582.45
785.00	56086.26
786.00	55804.61
787.00	55535.45
788.00	55445.73
789.00	55532.33
790.00	55640.78
791.00	55710.21
792.00	55600.99
793.00	55456.65
794.00	55327.14
795.00	55071.24
796.00	55021.31
797.00	54933.15
798.00	55089.19
799.00	55217.92
800.00	55444.17
801.00	55590.06
802.00	55786.67
803.00	55806.17
804.00	55942.70
805.00	56080.02
806.00	56257.12
807.00	55892.77
808.00	55178.91
809.00	54115.53
810.00	52784.54
811.00	51373.20
812.00	50068.74
813.00	49616.24
814.00	50050.80
815.00	51302.98
816.00	52758.80
817.00	53697.35
818.00	53865.87
819.00	53235.48
820.00	52619.14
821.00	52342.96
822.00	52697.94
823.00	53286.98
824.00	53861.97
825.00	54315.25
826.00	54607.82
827.00	55004.15
828.00	55380.20
829.00	55757.80
830.00	56048.03
831.00	55980.93
832.00	55731.28
833.00	55324.80
834.00	55325.58
835.00	55462.11
836.00	55808.51
837.00	56023.06
838.00	56149.45
839.00	56250.88
840.00	56410.81
841.00	56541.10
842.00	56473.23
843.00	56300.81
844.00	55908.38
845.00	55527.65
846.00	55167.99
847.00	55145.36
848.00	55226.50
849.00	55467.58
850.00	55802.27
851.00	56205.62
852.00	56598.05
853.00	56876.58
854.00	57102.05
855.00	57166.02
856.00	57141.06
857.00	56973.32
858.00	56761.89
859.00	56574.65
860.00	56565.29
861.00	56580.89
862.00	56815.72
863.00	56833.67
864.00	56695.58
865.00	56048.81
866.00	55270.97
867.00	54365.18
868.00	53520.25
869.00	52896.89
870.00	52522.40
871.00	52656.59
872.00	53052.92
873.00	53849.49
874.00	54682.72
875.00	55270.19
876.00	55718.79
877.00	55727.38
878.00	55962.21
879.00	56155.69
880.00	56554.36
881.00	56878.92
882.00	57111.41
883.00	57234.68
884.00	57059.92
885.00	56652.67
886.00	56254.78
887.00	56027.74
888.00	55937.24
889.00	56012.92
890.00	56193.14
891.00	56497.41
892.00	56800.12
893.00	57023.25
894.00	57116.09
895.00	57169.15
896.00	57008.43
897.00	56800.90
898.00	56520.82
899.00	56409.25
900.00	56166.62
901.00	55784.33
902.00	55233.52
903.00	54696.76
904.00	54228.65
905.00	54188.86
906.00	54494.69
907.00	54979.18
908.00	55281.11
909.00	55690.71
910.00	55779.65
911.00	55694.61
912.00	55428.57
913.00	55469.14
914.00	55555.74
915.00	55599.43
916.00	55561.20
917.00	55672.76
918.00	55934.90
919.00	56193.92
920.00	56470.11
921.00	56687.78
922.00	56793.10
923.00	56782.18
924.00	56459.18
925.00	56078.46
926.00	55556.52
927.00	55105.57
928.00	54695.98
929.00	54521.22
930.00	54475.97
931.00	54752.93
932.00	55054.86
933.00	55382.54
934.00	55478.50
935.00	55563.54
936.00	55620.49
937.00	55738.30
938.00	55599.43
939.00	55490.98
940.00	55334.17
941.00	55198.41
942.00	54958.90
943.00	54661.65
944.00	54458.02
945.00	54314.47
946.00	54305.11
947.00	54098.36
948.00	53916.58
949.00	53528.05
950.00	53459.40
951.00	53205.06
952.00	53166.05
953.00	53262.79
954.00	53669.26
955.00	53952.47
956.00	54163.90
957.00	54313.69
958.00	54567.25
959.00	54668.67
960.00	54623.42
961.00	54292.63
962.00	54175.60
963.00	54127.23
964.00	54290.29
965.00	54177.16
966.00	54174.04
967.00	54255.18
968.00	54459.58
969.00	54542.28
970.00	54917.55
971.00	55189.05
972.00	55421.55
973.00	55086.07
974.00	54839.53
975.00	54706.12
976.00	54656.19
977.00	54642.15
978.00	54512.64
979.00	54511.08
980.00	54485.33
981.00	54611.72
982.00	54597.68
983.00	54472.07
984.00	54341.00
985.00	54211.49
986.00	54258.30
987.00	54108.50
988.00	54343.34
989.00	54177.16
990.00	54183.40
991.00	53679.41
992.00	53506.99
993.00	53305.70
994.00	53392.30
995.00	53552.24
996.00	53720.76
997.00	53965.73
998.00	54162.34
999.00	54274.68
1000.00	54389.37
1001.00	54412.77
1002.00	54373.77
1003.00	54170.14
1004.00	54105.38
1005.00	54117.87
1006.00	54220.07
1007.00	54113.97
1008.00	54044.53
1009.00	53748.84
1010.00	53716.07
1011.00	53576.42
1012.00	53634.94
1013.00	53375.92
1014.00	53354.85
1015.00	53302.58
1016.00	53521.03
1017.00	53749.62
1018.00	54014.10
1019.00	54153.76
1020.00	54039.85
1021.00	53863.53
1022.00	53464.08
1023.00	53181.65
1024.00	53021.72
1025.00	53090.37
1026.00	53317.40
1027.00	53372.02
1028.00	53528.05
1029.00	53400.10
1030.00	53595.15
1031.00	53830.76
1032.00	54106.94
1033.00	54151.41
1034.00	53962.61
1035.00	53968.85
1036.00	53969.63
1037.00	54086.66
1038.00	53969.63
1039.00	53850.27
1040.00	53670.82
1041.00	53495.28
1042.00	53266.69
1043.00	53113.78
1044.00	53086.47
1045.00	53033.42
1046.00	52892.99
1047.00	52601.98
1048.00	52366.37
1049.00	52211.89
1050.00	52168.98
1051.00	52305.51
1052.00	52435.80
1053.00	52642.55
1054.00	52715.11
1055.00	52644.89
1056.00	52364.81
1057.00	51938.83
1058.00	51456.68
1059.00	50913.67
1060.00	50661.68
1061.00	50520.46
1062.00	50775.58
1063.00	50884.81
1064.00	51151.63
1065.00	51146.17
1066.00	51282.70
1067.00	51213.26
1068.00	51260.85
1069.00	51362.28
1070.00	51682.15
1071.00	52085.50
1072.00	52344.52
1073.00	52438.14
1074.00	52367.93
1075.00	51980.18
1076.00	51542.50
1077.00	51216.38
1078.00	51196.10
1079.00	51246.81
1080.00	51247.59
1081.00	51238.23
1082.00	51272.56
1083.00	51440.29
1084.00	51631.44
1085.00	51876.41
1086.00	51838.97
1087.00	51647.82
1088.00	51352.91
1089.00	51274.12
1090.00	51170.35
1091.00	51157.09
1092.00	50983.11
1093.00	50969.85
1094.00	50938.64
1095.00	51121.98
1096.00	51117.30
1097.00	51042.40
1098.00	50796.65
1099.00	50572.74
1100.00	50280.17
1101.00	49917.39
1102.00	49517.15
1103.00	49375.94
1104.00	49283.88
1105.00	49506.23
1106.00	49670.07
1107.00	49919.73
1108.00	50145.20
1109.00	50283.29
1110.00	50606.28
1111.00	50571.17
1112.00	50770.90
1113.00	50634.37
1114.00	50524.36
1115.00	50121.01
1116.00	49759.79
1117.00	49423.53
1118.00	48970.25
1119.00	48700.31
1120.00	48424.12
1121.00	48375.75
1122.00	48474.84
1123.00	48643.35
1124.00	48892.23
1125.00	48913.30
1126.00	48990.53
1127.00	48999.90
1128.00	48714.35
1129.00	48337.52
1130.00	47919.35
1131.00	47533.16
1132.00	47032.28
1133.00	46606.31
1134.00	46281.75
1135.00	46414.38
1136.00	46625.03
1137.00	47029.94
1138.00	47423.93
1139.00	47753.95
1140.00	48131.56
1141.00	48343.77
1142.00	48609.81
1143.00	48574.70
1144.00	48574.70
1145.00	48327.38
1146.00	48371.85
1147.00	48081.63
1148.00	48062.90
1149.00	47846.01
1150.00	47905.30
1151.00	47764.87
1152.00	47854.59
1153.00	47750.05
1154.00	47569.83
1155.00	47236.69
1156.00	47047.11
1157.00	46840.36
1158.00	46680.42
1159.00	46437.79
1160.00	46385.52
1161.00	46302.04
1162.00	46305.94
1163.00	46060.18
1164.00	45748.89
1165.00	45753.57
1166.00	45833.15
1167.00	46109.33
1168.00	46182.67
1169.00	46564.96
1170.00	46526.73
1171.00	46460.41
1172.00	46127.28
1173.00	46123.38
1174.00	45979.82
1175.00	45885.42
1176.00	45596.76
1177.00	45290.93
1178.00	44819.70
1179.00	44416.35
1180.00	44256.41
1181.00	44459.26
1182.00	44678.49
1183.00	44901.62
1184.00	44921.12
1185.00	45194.18
1186.00	45359.58
1187.00	45486.75
1188.00	45603.78
1189.00	45595.98
1190.00	45642.01
1191.00	45684.14
1192.00	45524.20
1193.00	45474.27
1194.00	45315.11
1195.00	45447.74
1196.00	45553.07
1197.00	45529.66
1198.00	45645.91
1199.00	45595.98
1200.00	45659.17
1201.00	45728.61
1202.00	45842.51
1203.00	46047.70
1204.00	46064.86
1205.00	46284.09
1206.00	46209.20
1207.00	46376.94
1208.00	46146.78
1209.00	46070.32
1210.00	45966.56
1211.00	45859.68
1212.00	45953.30
1213.00	45904.93
1214.00	45844.07
1215.00	45556.19
1216.00	45461.01
1217.00	45441.50
1218.00	45528.10
1219.00	45334.62
1220.00	45293.27
1221.00	44918.00
1222.00	44621.53
1223.00	44244.71
1224.00	44039.52
1225.00	43712.63
1226.00	43526.94
1227.00	43486.37
1228.00	43452.05
1229.00	43649.43
1230.00	43796.10
1231.00	44096.47
1232.00	44066.05
1233.00	44144.06
1234.00	43929.51
1235.00	44081.65
1236.00	43944.34
1237.00	43906.89
1238.00	43624.46
1239.00	43615.10
1240.00	43408.36
1241.00	43022.17
1242.00	42102.34
1243.00	41058.46
1244.00	39785.99
1245.00	38639.12
1246.00	37887.03
1247.00	37338.57
1248.00	37138.06
1249.00	37150.54
1250.00	37517.23
1251.00	38247.47
1252.00	39164.96
1253.00	40130.05
1254.00	40999.16
1255.00	41450.89
1256.00	41979.07
1257.00	42014.18
1258.00	42172.55
1259.00	41759.84
1260.00	41691.18
1261.00	41420.46
1262.00	41392.37
1263.00	41313.58
1264.00	41347.12
1265.00	41195.77
1266.00	41063.92
1267.00	41149.74
1268.00	41412.66
1269.00	41429.82
1270.00	41183.29
1271.00	41087.32
1272.00	41204.35
1273.00	41313.58
1274.00	41351.80
1275.00	41244.14
1276.00	41262.08
1277.00	41060.80
1278.00	40790.86
1279.00	40472.54
1280.00	40172.95
1281.00	40144.87
1282.00	40047.35
1283.00	39990.39
1284.00	39851.52
1285.00	39928.76
1286.00	40178.42
1287.00	40307.15
1288.00	40389.06
1289.00	40461.62
1290.00	40595.81
1291.00	40844.69
1292.00	41047.54
1293.00	40922.71
1294.00	40758.87
1295.00	40545.88
1296.00	40790.86
1297.00	40762.77
1298.00	40848.59
1299.00	40584.11
1300.00	40441.34
1301.00	40272.82
1302.00	40168.27
1303.00	39988.05
1304.00	39903.79
1305.00	40012.24
1306.00	39990.39
1307.00	39870.25
1308.00	39768.82
1309.00	39780.53
1310.00	39886.63
1311.00	39990.39
1312.00	40304.81
1313.00	40346.15
1314.00	40253.31
1315.00	40062.95
1316.00	40024.72
1317.00	39980.25
1318.00	39888.19
1319.00	39804.71
1320.00	39675.98
1321.00	39600.30
1322.00	39409.94
1323.00	39322.56
1324.00	39311.64
1325.00	39322.56
1326.00	39179.79
1327.00	38954.32
1328.00	38665.65
1329.00	38621.96
1330.00	38511.95
1331.00	38661.75
1332.00	38675.79
1333.00	38955.10
1334.00	39189.15
1335.00	39354.55
1336.00	39544.91
1337.00	39626.05
1338.00	39721.23
1339.00	39675.98
1340.00	39622.15
1341.00	39629.17
1342.00	39555.05
1343.00	39515.26
1344.00	39270.29
1345.00	39259.37
1346.00	39128.30
1347.00	39353.77
1348.00	39198.51
1349.00	39090.07
1350.00	38871.62
1351.00	38847.43
1352.00	38789.70
1353.00	38743.67
1354.00	38594.65
1355.00	38633.66
1356.00	38540.82
1357.00	38458.90
1358.00	38333.29
1359.00	38343.44
1360.00	38392.59
1361.00	38434.72
1362.00	38377.76
1363.00	38295.07
1364.00	38139.81
1365.00	38150.73
1366.00	38124.21
1367.00	37922.14
1368.00	37638.15
1369.00	37468.86
1370.00	37380.70
1371.00	37375.23
1372.00	37300.34
1373.00	37187.99
1374.00	37096.71
1375.00	37113.87
1376.00	37219.98
1377.00	37137.28
1378.00	37091.25
1379.00	36845.49
1380.00	36585.69
1381.00	36332.14
1382.00	36314.19
1383.00	36453.84
1384.00	36443.70
1385.00	36591.94
1386.00	36831.45
1387.00	36974.22
1388.00	36919.61
1389.00	36694.92
1390.00	36577.11
1391.00	36468.67
1392.00	36362.56
1393.00	36076.24
1394.00	35936.59
1395.00	35804.74
1396.00	35896.02
1397.00	35792.25
1398.00	35896.02
1399.00	35935.02
1400.00	36014.60
1401.00	35780.55
1402.00	35438.05
1403.00	35124.42
1404.00	34890.37
1405.00	34763.98
1406.00	34706.24
1407.00	34912.21
1408.00	35063.57
1409.00	35310.88
1410.00	35289.04
1411.00	35494.22
1412.00	35349.11
1413.00	35260.95
1414.00	34990.23
1415.00	34942.64
1416.00	34838.09
1417.00	34557.23
1418.00	34114.87
1419.00	33708.40
1420.00	33401.79
1421.00	33297.24
1422.00	33185.68
1423.00	33240.29
1424.00	33256.67
1425.00	33428.31
1426.00	33587.47
1427.00	33829.32
1428.00	33919.82
1429.00	34114.09
1430.00	34188.21
1431.00	34367.65
1432.00	34339.56
1433.00	34392.61
1434.00	34323.18
1435.00	34289.63
1436.00	34089.90
1437.00	33870.67
1438.00	33695.91
1439.00	33649.88
1440.00	33739.60
1441.00	33886.28
1442.00	34004.86
1443.00	33980.68
1444.00	33905.00
1445.00	33842.59
1446.00	33868.33
1447.00	33862.09
1448.00	33808.26
1449.00	33831.66
1450.00	33851.95
1451.00	33745.06
1452.00	33571.86
1453.00	33220.00
1454.00	32996.09
1455.00	32827.57
1456.00	32733.95
1457.00	32670.76
1458.00	32628.63
1459.00	32705.87
1460.00	32731.61
1461.00	32524.08
1462.00	32373.51
1463.00	32199.53
1464.00	32195.63
1465.00	32029.45
1466.00	31891.36
1467.00	31677.59
1468.00	31548.86
1469.00	31625.32
1470.00	31761.85
1471.00	31708.02
1472.00	31601.91
1473.00	31323.39
1474.00	31228.21
1475.00	31109.62
1476.00	31104.94
1477.00	31128.34
1478.00	30902.87
1479.00	30707.05
1480.00	30338.80
1481.00	30358.31
1482.00	30291.99
1483.00	30409.80
1484.00	30444.91
1485.00	30597.82
1486.00	30668.82
1487.00	30604.84
1488.00	30583.78
1489.00	30621.23
1490.00	30661.02
1491.00	30578.32
1492.00	30418.38
1493.00	29983.82
1494.00	29420.53
1495.00	28756.60
1496.00	28336.87
1497.00	27999.05
1498.00	27846.91
1499.00	27935.07
1500.00	28202.68
1501.00	28575.60
1502.00	28756.60
1503.00	28856.46
1504.00	28960.23
1505.00	28996.90
1506.00	29040.59
1507.00	28737.88
1508.00	28513.97
1509.00	28258.07
1510.00	28216.72
1511.00	28112.95
1512.00	28112.17
1513.00	28338.43
1514.00	28563.90
1515.00	28780.79
1516.00	28652.84
1517.00	28641.92
1518.00	28551.42
1519.00	28610.71
1520.00	28404.74
1521.00	28105.15
1522.00	27683.08
1523.00	27514.56
1524.00	27470.09
1525.00	27773.58
1526.00	28095.79
1527.00	28478.86
1528.00	28693.41
1529.00	28737.88
1530.00	28765.96
1531.00	28692.63
1532.00	28588.08
1533.00	28319.70
1534.00	28079.41
1535.00	27996.71
1536.00	28161.33
1537.00	28202.68
1538.00	28147.28
1539.00	28015.43
1540.00	27989.69
1541.00	28027.92
1542.00	28116.08
1543.00	28212.82
1544.00	28378.22
1545.00	28360.27
1546.00	28382.90
1547.00	28262.75
1548.00	28095.79
1549.00	27875.00
1550.00	27751.73
1551.00	27623.78
1552.00	27571.51
1553.00	27720.52
1554.00	27791.52
1555.00	27899.19
1556.00	27905.43
1557.00	27989.69
1558.00	28066.92
1559.00	28023.23
1560.00	28075.51
1561.00	28189.41
1562.00	28118.42
1563.00	28063.80
1564.00	28013.09
1565.00	27968.62
1566.00	27903.09
1567.00	27801.66
1568.00	27818.05
1569.00	27942.88
1570.00	27946.00
1571.00	27782.94
1572.00	27451.36
1573.00	27188.44
1574.00	27094.04
1575.00	27084.68
1576.00	26985.60
1577.00	27016.80
1578.00	26967.65
1579.00	26875.59
1580.00	26739.06
1581.00	26670.40
1582.00	26568.98
1583.00	26561.96
1584.00	26478.48
1585.00	26551.04
1586.00	26332.59
1587.00	26164.07
1588.00	26156.27
1589.00	26155.49
1590.00	26208.54
1591.00	26169.53
1592.00	26269.39
1593.00	26355.21
1594.00	26425.43
1595.00	26385.64
1596.00	26481.60
1597.00	26329.47
1598.00	26409.04
1599.00	26205.42
1600.00	26116.48
1601.00	26004.13
1602.00	25930.02
1603.00	25823.91
1604.00	25706.88
1605.00	25628.09
1606.00	25841.85
1607.00	25805.97
1608.00	25943.28
1609.00	25793.48
1610.00	25756.82
1611.00	25623.40
1612.00	25505.60
1613.00	25540.71
1614.00	25569.57
1615.00	25559.43
1616.00	25419.78
1617.00	25294.95
1618.00	25281.69
1619.00	25130.33
1620.00	25032.03
1621.00	24840.11
1622.00	24850.25
1623.00	24698.11
1624.00	24830.74
1625.00	24780.03
1626.00	24823.72
1627.00	24484.34
1628.00	24300.22
1629.00	24176.95
1630.00	24240.15
1631.00	24237.03
1632.00	24148.09
1633.00	24068.51
1634.00	24051.34
1635.00	24060.71
1636.00	24027.94
1637.00	23928.08
1638.00	23822.75
1639.00	23743.95
1640.00	23568.41
1641.00	23307.05
1642.00	22882.64
1643.00	22742.99
1644.00	22733.62
1645.00	23038.67
1646.00	23293.79
1647.00	23584.80
1648.00	23850.06
1649.00	24080.21
1650.00	24320.51
1651.00	24311.14
1652.00	24375.90
1653.00	24349.37
1654.00	24244.05
1655.00	23960.06
1656.00	23622.25
1657.00	23429.54
1658.00	23188.47
1659.00	23063.64
1660.00	23138.54
1661.00	23330.46
1662.00	23514.58
1663.00	23546.57
1664.00	23618.35
1665.00	23652.67
1666.00	23552.03
1667.00	23566.85
1668.00	23550.47
1669.00	23558.27
1670.00	23472.45
1671.00	23463.09
1672.00	23558.27
1673.00	23597.28
1674.00	23532.53
1675.00	23450.61
1676.00	23214.21
1677.00	23070.66
1678.00	22670.43
1679.00	22576.81
1680.00	22378.64
1681.00	22435.60
1682.00	22241.33
1683.00	21976.85
1684.00	21581.30
1685.00	21234.12
1686.00	20570.97
1687.00	19816.54
1688.00	18831.95
1689.00	18212.49
1690.00	17894.96
1691.00	18050.99
1692.00	18532.36
1693.00	19201.76
1694.00	19939.02
1695.00	20578.77
1696.00	21023.47
1697.00	21220.86
1698.00	21472.07
1699.00	21671.80
1700.00	21966.71
1701.00	22029.12
1702.00	22150.83
1703.00	22115.72
1704.00	22234.31
1705.00	22206.22
1706.00	22201.54
1707.00	22141.47
1708.00	22111.04
1709.00	22115.72
1710.00	21937.06
1711.00	21897.27
1712.00	21845.00
1713.00	21891.81
1714.00	21855.92
1715.00	21788.83
1716.00	21910.54
1717.00	21919.90
1718.00	22023.66
1719.00	21862.94
1720.00	21896.49
1721.00	21795.07
1722.00	21916.00
1723.00	21893.37
1724.00	21901.95
1725.00	21877.77
1726.00	21813.79
1727.00	21898.05
1728.00	21760.74
1729.00	21805.99
1730.00	21780.25
1731.00	21824.72
1732.00	21728.75
1733.00	21546.19
1734.00	21440.09
1735.00	21404.98
1736.00	21394.06
1737.00	21310.58
1738.00	21092.13
1739.00	20975.10
1740.00	20781.62
1741.00	20843.25
1742.00	20903.32
1743.00	20911.91
1744.00	20808.14
1745.00	20712.18
1746.00	20706.72
1747.00	20581.89
1748.00	20443.02
1749.00	20569.41
1750.00	20785.52
1751.00	20904.88
1752.00	20695.80
1753.00	20619.34
1754.00	20572.53
1755.00	20586.57
1756.00	20414.15
1757.00	20265.14
1758.00	20156.69
1759.00	20123.15
1760.00	19924.98
1761.00	19873.49
1762.00	19832.14
1763.00	19985.05
1764.00	20077.12
1765.00	20042.01
1766.00	20021.72
1767.00	19860.23
1768.00	19811.85
1769.00	19699.51
1770.00	19708.09
1771.00	19580.14
1772.00	19541.13
1773.00	19467.02
1774.00	19565.32
1775.00	19592.62
1776.00	19684.69
1777.00	19695.61
1778.00	19711.21
1779.00	19630.07
1780.00	19633.97
1781.00	19471.70
1782.00	19406.16
1783.00	19224.38
1784.00	19237.64
1785.00	19165.87
1786.00	19032.46
1787.00	18932.59
1788.00	18842.09
1789.00	18877.20
1790.00	18794.50
1791.00	18750.03
1792.00	18702.44
1793.00	18733.65
1794.00	18718.04
1795.00	18647.83
1796.00	18463.71
1797.00	18278.80
1798.00	18197.67
1799.00	18181.28
1800.00	18192.20
1801.00	18051.77
1802.00	17994.04
1803.00	17953.47
1804.00	18033.83
1805.00	18008.86
1806.00	17963.61
1807.00	17988.58
1808.00	17984.68
1809.00	18011.20
1810.00	17841.12
1811.00	17777.93
1812.00	17657.78
1813.00	17708.49
1814.00	17625.01
1815.00	17565.72
1816.00	17436.21
1817.00	17371.46
1818.00	17370.68
1819.00	17364.43
1820.00	17313.72
1821.00	17175.63
1822.00	17144.42
1823.00	17204.50
1824.00	17273.93
1825.00	17192.80
1826.00	17191.23
1827.00	17162.37
1828.00	17272.37
1829.00	17124.92
1830.00	16881.50
1831.00	16729.37
1832.00	16645.89
1833.00	16607.66
1834.00	16541.35
1835.00	16577.23
1836.00	16478.93
1837.00	16387.65
1838.00	16268.28
1839.00	16333.04
1840.00	16296.37
1841.00	16299.49
1842.00	16389.99
1843.00	16337.72
1844.00	16254.24
1845.00	16038.91
1846.00	15950.75
1847.00	15875.85
1848.00	15864.15
1849.00	15855.57
1850.00	15765.85
1851.00	15719.04
1852.00	15626.20
1853.00	15521.65
1854.00	15411.65
1855.00	15278.24
1856.00	15335.97
1857.00	15303.20
1858.00	15314.13
1859.00	15300.08
1860.00	15221.28
1861.00	15275.90
1862.00	15092.55
1863.00	15178.37
1864.00	15073.83
1865.00	15129.22
1866.00	15009.08
1867.00	15030.92
1868.00	15015.32
1869.00	14996.59
1870.00	14933.40
1871.00	14828.07
1872.00	14799.21
1873.00	14698.56
1874.00	14655.65
1875.00	14573.74
1876.00	14565.93
1877.00	14480.11
1878.00	14444.23
1879.00	14291.31
1880.00	14239.82
1881.00	14132.93
1882.00	14063.50
1883.00	13980.80
1884.00	13838.03
1885.00	13854.41
1886.00	13720.22
1887.00	13625.82
1888.00	13445.60
1889.00	13341.05
1890.00	13398.01
1891.00	13396.45
1892.00	13445.60
1893.00	13385.52
1894.00	13377.72
1895.00	13321.55
1896.00	13294.24
1897.00	13231.05
1898.00	13172.53
1899.00	13116.36
1900.00	13066.43
1901.00	12962.67
1902.00	12823.80
1903.00	12591.30
1904.00	12235.54
1905.00	11652.75
1906.00	10817.18
1907.00	9882.52
1908.00	9101.56
1909.00	8553.88
1910.00	8183.29
1911.00	7988.25
1912.00	7943.78
1913.00	8217.62
1914.00	8514.87
1915.00	8978.30
1916.00	9426.90
1917.00	9831.81
1918.00	10036.22
1919.00	10082.25
1920.00	10015.93
1921.00	9859.90
1922.00	9704.64
1923.00	9585.27
1924.00	9459.67
1925.00	9405.05
1926.00	9384.77
1927.00	9502.57
1928.00	9569.67
1929.00	9581.37
1930.00	9593.86
1931.00	9564.21
1932.00	9692.94
1933.00	9724.15
1934.00	9819.33
1935.00	9840.39
1936.00	9986.29
1937.00	10027.64
1938.00	10068.20
1939.00	10044.80
1940.00	10047.92
1941.00	10042.46
1942.00	9980.82
1943.00	10058.84
1944.00	10107.21
1945.00	10216.44
1946.00	10178.21
1947.00	10073.67
1948.00	9944.94
1949.00	9876.28
1950.00	9897.35
1951.00	9923.09
1952.00	9945.72
1953.00	9920.75
1954.00	9873.16
1955.00	9768.62
1956.00	9683.58
1957.00	9570.45
1958.00	9600.10
1959.00	9532.22
1960.00	9497.89
1961.00	9360.58
1962.00	9320.79
1963.00	9306.75
1964.00	9288.81
1965.00	9238.09
1966.00	9188.94
1967.00	9206.89
1968.00	9198.31
1969.00	9134.33
1970.00	9068.80
1971.00	9058.65
1972.00	9075.82
1973.00	9129.65
1974.00	9058.65
1975.00	9045.39
1976.00	9011.84
1977.00	9021.20
1978.00	9024.33
1979.00	8997.02
1980.00	9092.20
1981.00	9156.96
1982.00	9252.92
1983.00	9199.09
1984.00	9181.92
1985.00	9085.18
1986.00	9065.68
1987.00	8990.00
1988.00	8883.89
1989.00	8714.59
1990.00	8667.78
1991.00	8603.03
1992.00	8640.48
1993.00	8475.08
1994.00	8418.13
1995.00	8357.27
1996.00	8267.55
1997.00	8155.21
1998.00	8036.62
1999.00	7986.69
2000.00	7979.67
2001.00	7963.28
2002.00	8104.50
2003.00	8124.00
2004.00	8117.76
2005.00	7927.39
2006.00	7875.90
2007.00	7782.28
2008.00	7699.58
2009.00	7580.22
2010.00	7525.60
2011.00	7584.90
2012.00	7629.37
2013.00	7642.63
2014.00	7600.50
2015.00	7525.60
2016.00	7452.27
2017.00	7368.01
2018.00	7345.38
2019.00	7314.95
2020.00	7317.29
2021.00	7282.97
2022.00	7257.22
2023.00	7226.79
2024.00	7195.59
2025.00	7190.91
2026.00	7077.00
2027.00	7034.87
2028.00	6986.50
2029.00	7091.82
2030.00	7135.51
2031.00	7165.16
2032.00	7186.22
2033.00	7150.34
2034.00	7107.43
2035.00	7036.43
2036.00	7037.21
2037.00	7001.32
2038.00	6960.75
2039.00	6885.08
2040.00	6864.01
2041.00	6864.79
2042.00	6826.56
2043.00	6830.46
2044.00	6768.05
2045.00	6800.82
2046.00	6697.05
2047.00	6534.78
>>>>>End Processed Spectral Data<<<<<
