SpectraSuite Data File
++++++++++++++++++++++++++++++++++++
Date: Thu Nov 16 13:32:48 EST 2017
User: cheriyan
Dark Spectrum Present: No
Reference Spectrum Present: No
Number of Sampled Component Spectra: 1
Spectrometers: USB2+H05261
Integration Time (usec): 90000 (USB2+H05261)
Spectra Averaged: 1 (USB2+H05261)
Boxcar Smoothing: 1 (USB2+H05261)
Correct for Electrical Dark: No (USB2+H05261)
Strobe/Lamp Enabled: No (USB2+H05261)
Correct for Detector Non-linearity: No (USB2+H05261)
Correct for Stray Light: No (USB2+H05261)
Number of Pixels in Processed Spectrum: 2048
>>>>>Begin Processed Spectral Data<<<<<
0.00	397.89
1.00	397.89
2.00	339.38
3.00	284.77
4.00	234.83
5.00	266.82
6.00	270.72
7.00	254.34
8.00	255.12
9.00	239.51
10.00	261.36
11.00	234.05
12.00	258.24
13.00	251.22
14.00	270.72
15.00	269.94
16.00	282.42
17.00	279.30
18.00	291.79
19.00	291.79
20.00	318.31
21.00	333.14
22.00	350.30
23.00	798.90
24.00	2477.07
25.00	4313.61
26.00	5664.10
27.00	5736.65
28.00	5547.07
29.00	5351.24
30.00	5162.44
31.00	5128.89
32.00	5181.17
33.00	5295.07
34.00	5263.86
35.00	5110.95
36.00	4869.87
37.00	4709.16
38.00	4672.49
39.00	4761.43
40.00	4916.69
41.00	4943.21
42.00	4924.49
43.00	4836.33
44.00	4911.22
45.00	5099.25
46.00	5460.47
47.00	5769.42
48.00	5965.25
49.00	5946.52
50.00	5893.47
51.00	5852.90
52.00	5921.56
53.00	5982.41
54.00	6130.64
55.00	6285.12
56.00	6565.98
57.00	6838.27
58.00	7117.57
59.00	7340.70
60.00	7502.20
61.00	7538.09
62.00	7375.03
63.00	7142.53
64.00	6860.11
65.00	6594.85
66.00	6330.37
67.00	6169.65
68.00	6136.10
69.00	6150.15
70.00	6319.45
71.00	6542.58
72.00	6843.73
73.00	7044.23
74.00	7145.66
75.00	7013.03
76.00	6838.27
77.00	6576.13
78.00	6366.26
79.00	6019.86
80.00	5753.04
81.00	5468.27
82.00	5238.90
83.00	4963.50
84.00	4783.27
85.00	4632.70
86.00	4553.12
87.00	4573.41
88.00	4632.70
89.00	4741.93
90.00	4915.91
91.00	5232.66
92.00	5713.25
93.00	6112.70
94.00	6478.60
95.00	6671.31
96.00	6727.48
97.00	6665.07
98.00	6499.67
99.00	6349.87
100.00	6263.27
101.00	6289.80
102.00	6449.74
103.00	6586.27
104.00	6638.54
105.00	6624.50
106.00	6590.17
107.00	6607.33
108.00	6642.44
109.00	6718.12
110.00	6795.36
111.00	6809.40
112.00	6768.83
113.00	6689.25
114.00	6682.23
115.00	6825.00
116.00	7168.28
117.00	7639.51
118.00	8060.02
119.00	8386.14
120.00	8557.78
121.00	8559.34
122.00	8557.78
123.00	8553.10
124.00	8705.23
125.00	8891.70
126.00	9100.78
127.00	9427.68
128.00	9643.01
129.00	9660.95
130.00	9464.35
131.00	9140.57
132.00	8855.81
133.00	8397.06
134.00	7772.92
135.00	7098.06
136.00	6265.61
137.00	5541.61
138.00	4860.51
139.00	4650.64
140.00	4855.05
141.00	5462.03
142.00	6218.80
143.00	7022.39
144.00	7715.19
145.00	8484.44
146.00	9088.30
147.00	9705.42
148.00	10023.73
149.00	10320.98
150.00	10275.73
151.00	9985.51
152.00	9377.75
153.00	8644.38
154.00	7788.52
155.00	6835.14
156.00	6140.79
157.00	5898.93
158.00	6253.91
159.00	7014.59
160.00	8023.36
161.00	9294.27
162.00	10437.23
163.00	11317.27
164.00	11884.46
165.00	12298.74
166.00	12844.08
167.00	13176.44
168.00	13587.59
169.00	13743.63
170.00	13923.85
171.00	13895.76
172.00	13954.27
173.00	14104.07
174.00	14214.85
175.00	14317.84
176.00	14287.41
177.00	14568.27
178.00	14887.37
179.00	15294.62
180.00	15467.82
181.00	15492.01
182.00	15501.37
183.00	15673.79
184.00	15904.72
185.00	15928.91
186.00	15795.50
187.00	15676.91
188.00	15571.58
189.00	15401.51
190.00	15159.65
191.00	15304.76
192.00	15561.44
193.00	15862.59
194.00	15846.99
195.00	15634.78
196.00	15473.28
197.00	15389.80
198.00	15466.26
199.00	15495.13
200.00	15572.36
201.00	15626.98
202.00	15530.23
203.00	15482.64
204.00	15314.13
205.00	15233.77
206.00	15066.03
207.00	15098.80
208.00	15241.57
209.00	15548.96
210.00	15734.64
211.00	15670.67
212.00	15492.79
213.00	15572.36
214.00	16031.89
215.00	16483.61
216.00	16838.59
217.00	17122.58
218.00	17269.25
219.00	17543.88
220.00	17635.16
221.00	17663.24
222.00	17262.23
223.00	16715.33
224.00	16095.86
225.00	15505.27
226.00	15276.68
227.00	15481.08
228.00	15996.00
229.00	16585.04
230.00	17099.95
231.00	17678.07
232.00	18143.05
233.00	18423.14
234.00	18514.42
235.00	18624.42
236.00	18814.79
237.00	18973.16
238.00	18870.96
239.00	18805.42
240.00	18548.75
241.00	18420.80
242.00	18388.03
243.00	18424.70
244.00	18835.85
245.00	19075.37
246.00	19330.48
247.00	19194.73
248.00	19118.28
249.00	19157.28
250.00	19239.98
251.00	19255.59
252.00	19288.35
253.00	19243.10
254.00	19435.03
255.00	19659.72
256.00	20250.32
257.00	20579.55
258.00	21014.11
259.00	20961.84
260.00	20923.61
261.00	20585.01
262.00	20162.15
263.00	19843.06
264.00	19641.00
265.00	19701.07
266.00	19742.42
267.00	19941.36
268.00	20126.27
269.00	20153.57
270.00	20081.80
271.00	20173.08
272.00	20553.02
273.00	20848.71
274.00	20950.92
275.00	20795.66
276.00	20488.27
277.00	20104.42
278.00	19921.86
279.00	20060.73
280.00	20685.65
281.00	21415.12
282.00	22018.20
283.00	22292.82
284.00	22234.31
285.00	22064.23
286.00	21966.71
287.00	21806.77
288.00	21513.42
289.00	21005.53
290.00	20374.36
291.00	19935.12
292.00	19688.59
293.00	19920.30
294.00	20433.66
295.00	20772.25
296.00	20939.21
297.00	20829.99
298.00	21027.37
299.00	21189.65
300.00	21346.47
301.00	21091.35
302.00	20798.78
303.00	20637.28
304.00	20641.96
305.00	20749.63
306.00	20595.93
307.00	20518.70
308.00	20371.24
309.00	20382.95
310.00	20555.36
311.00	20780.84
312.00	20805.02
313.00	20637.28
314.00	20112.22
315.00	19565.32
316.00	19083.95
317.00	18980.96
318.00	19315.66
319.00	19617.59
320.00	20142.65
321.00	20189.46
322.00	20149.67
323.00	19698.73
324.00	19526.31
325.00	19334.39
326.00	19264.95
327.00	18988.77
328.00	18510.52
329.00	17774.03
330.00	17017.26
331.00	16211.33
332.00	15534.14
333.00	14965.39
334.00	14764.88
335.00	14979.43
336.00	15660.52
337.00	16975.91
338.00	18696.98
339.00	20606.08
340.00	22120.40
341.00	22708.66
342.00	22384.88
343.00	21637.47
344.00	21131.92
345.00	21296.53
346.00	21735.77
347.00	22398.15
348.00	22824.12
349.00	22700.08
350.00	21866.06
351.00	20684.87
352.00	20066.19
353.00	20083.36
354.00	20772.25
355.00	21377.67
356.00	21986.21
357.00	22263.18
358.00	22568.23
359.00	22829.59
360.00	23062.86
361.00	23447.49
362.00	23761.12
363.00	24268.23
364.00	24514.77
365.00	24619.32
366.00	24493.71
367.00	24393.84
368.00	24127.80
369.00	23698.70
370.00	23357.77
371.00	23130.73
372.00	22983.28
373.00	22505.81
374.00	21889.47
375.00	21453.35
376.00	21176.39
377.00	21320.72
378.00	21735.77
379.00	22330.27
380.00	23068.32
381.00	23752.54
382.00	24335.33
383.00	24648.18
384.00	24491.37
385.00	24310.36
386.00	24146.53
387.00	24239.37
388.00	24539.74
389.00	25120.19
390.00	25738.09
391.00	26277.19
392.00	26586.93
393.00	27072.98
394.00	27303.13
395.00	27611.30
396.00	27697.12
397.00	28036.50
398.00	28205.02
399.00	28429.71
400.00	28348.57
401.00	28350.91
402.00	28169.13
403.00	28321.26
404.00	28439.85
405.00	28783.13
406.00	28889.23
407.00	28751.92
408.00	28434.39
409.00	28510.85
410.00	28821.36
411.00	28946.19
412.00	28428.93
413.00	27686.20
414.00	26848.29
415.00	26409.82
416.00	26250.67
417.00	26546.36
418.00	26956.73
419.00	27368.66
420.00	27655.77
421.00	28112.17
422.00	28619.29
423.00	29138.11
424.00	29378.40
425.00	29464.22
426.00	29388.55
427.00	29010.16
428.00	28942.28
429.00	29012.50
430.00	29252.02
431.00	29106.90
432.00	28993.00
433.00	28886.11
434.00	29015.62
435.00	29096.76
436.00	29374.50
437.00	29705.30
438.00	30047.02
439.00	30425.40
440.00	30909.89
441.00	31418.57
442.00	31605.81
443.00	31527.02
444.00	31232.89
445.00	31006.64
446.00	30804.57
447.00	30842.02
448.00	30845.92
449.00	30631.37
450.00	30205.39
451.00	29621.82
452.00	28993.78
453.00	28385.24
454.00	28137.92
455.00	28190.19
456.00	28563.12
457.00	28999.24
458.00	29478.27
459.00	29854.31
460.00	30211.64
461.00	30393.42
462.00	30442.57
463.00	30168.73
464.00	30002.55
465.00	29757.57
466.00	29869.14
467.00	30040.00
468.00	30214.76
469.00	30618.11
470.00	31001.96
471.00	31491.91
472.00	31480.99
473.00	31459.14
474.00	31601.13
475.00	31832.07
476.00	32059.10
477.00	32271.31
478.00	32405.50
479.00	32519.40
480.00	32090.30
481.00	31892.92
482.00	31263.32
483.00	30987.13
484.00	30952.80
485.00	31338.99
486.00	31664.33
487.00	31649.50
488.00	31532.48
489.00	31581.63
490.00	31418.57
491.00	31414.67
492.00	31328.85
493.00	31469.28
494.00	31451.34
495.00	31575.39
496.00	32034.91
497.00	32396.92
498.00	32756.58
499.00	32819.77
500.00	32815.09
501.00	32765.16
502.00	32794.03
503.00	32967.23
504.00	33176.31
505.00	33188.80
506.00	33358.10
507.00	33468.10
508.00	33604.63
509.00	33572.64
510.00	33447.04
511.00	33187.24
512.00	33043.68
513.00	32935.24
514.00	32842.40
515.00	32673.10
516.00	32464.01
517.00	32209.67
518.00	31935.83
519.00	31676.03
520.00	31921.01
521.00	32038.81
522.00	32272.87
523.00	32481.17
524.00	32877.51
525.00	33250.43
526.00	32981.27
527.00	32499.90
528.00	31731.42
529.00	31080.75
530.00	30909.89
531.00	31016.00
532.00	31415.45
533.00	31871.07
534.00	32206.55
535.00	32561.53
536.00	32256.48
537.00	31986.54
538.00	31957.67
539.00	32204.99
540.00	32566.21
541.00	32520.18
542.00	32687.14
543.00	32723.81
544.00	32842.40
545.00	32585.72
546.00	32289.25
547.00	31849.23
548.00	31606.59
549.00	31581.63
550.00	31690.85
551.00	31797.74
552.00	31885.90
553.00	31949.09
554.00	32165.20
555.00	32596.64
556.00	33088.93
557.00	33786.41
558.00	34445.66
559.00	34945.76
560.00	35182.93
561.00	34887.25
562.00	34498.72
563.00	34008.76
564.00	33620.24
565.00	33616.33
566.00	33872.23
567.00	34082.10
568.00	34231.90
569.00	34178.06
570.00	34553.33
571.00	34953.56
572.00	35395.14
573.00	35459.90
574.00	35371.74
575.00	35163.43
576.00	35261.73
577.00	35328.83
578.00	35590.97
579.00	35250.03
580.00	35208.68
581.00	34923.91
582.00	35191.51
583.00	35209.46
584.00	35484.08
585.00	35932.68
586.00	36429.66
587.00	36624.70
588.00	36850.95
589.00	37364.31
590.00	38013.42
591.00	38607.14
592.00	38784.24
593.00	38959.00
594.00	38696.86
595.00	38614.16
596.00	38625.08
597.00	38802.96
598.00	39266.39
599.00	39847.62
600.00	40411.69
601.00	40549.00
602.00	40531.84
603.00	40636.38
604.00	40750.29
605.00	41133.35
606.00	41101.37
607.00	41312.02
608.00	41333.08
609.00	41746.58
610.00	42070.35
611.00	42447.18
612.00	42726.48
613.00	43060.40
614.00	43093.16
615.00	43131.39
616.00	43092.38
617.00	43139.97
618.00	43260.12
619.00	43228.13
620.00	43373.25
621.00	43586.24
622.00	44061.36
623.00	44504.51
624.00	44449.11
625.00	44304.78
626.00	44037.18
627.00	44169.03
628.00	44255.63
629.00	44609.05
630.00	45095.88
631.00	45017.08
632.00	44261.09
633.00	43263.24
634.00	41892.47
635.00	40275.16
636.00	38381.66
637.00	37652.98
638.00	38011.08
639.00	39271.85
640.00	40598.15
641.00	41731.75
642.00	42492.43
643.00	43267.14
644.00	44201.80
645.00	45259.72
646.00	46114.01
647.00	46802.91
648.00	47197.68
649.00	47508.97
650.00	47405.21
651.00	47251.52
652.00	46731.92
653.00	46708.51
654.00	47011.22
655.00	48179.15
656.00	49230.05
657.00	50292.65
658.00	50806.79
659.00	51128.22
660.00	51187.52
661.00	51013.54
662.00	50912.89
663.00	50661.68
664.00	50622.67
665.00	50465.85
666.00	50617.99
667.00	50444.79
668.00	50063.28
669.00	49306.51
670.00	48926.56
671.00	48972.59
672.00	49632.62
673.00	50498.62
674.00	51472.28
675.00	51982.52
676.00	52200.19
677.00	52087.84
678.00	51835.06
679.00	51665.77
680.00	51731.30
681.00	52085.50
682.00	52520.84
683.00	52961.64
684.00	53500.75
685.00	53974.31
686.00	54280.92
687.00	54429.94
688.00	54265.32
689.00	53817.50
690.00	53359.53
691.00	53141.08
692.00	53280.74
693.00	53661.46
694.00	54118.65
695.00	54516.54
696.00	54542.28
697.00	54531.36
698.00	54633.56
699.00	54734.99
700.00	54920.67
701.00	55098.55
702.00	55043.94
703.00	54667.89
704.00	54081.98
705.00	53654.44
706.00	53578.76
707.00	53761.33
708.00	54350.36
709.00	54818.47
710.00	55084.51
711.00	55199.19
712.00	55290.48
713.00	55373.95
714.00	55231.18
715.00	54924.57
716.00	54498.59
717.00	54266.10
718.00	53795.65
719.00	53763.67
720.00	53641.18
721.00	53794.87
722.00	53679.41
723.00	53565.50
724.00	53492.16
725.00	53270.59
726.00	53205.06
727.00	53551.46
728.00	53950.13
729.00	54380.01
730.00	54426.82
731.00	54680.38
732.00	54920.67
733.00	55146.14
734.00	55204.66
735.00	54869.18
736.00	54390.93
737.00	53808.14
738.00	53580.32
739.00	53627.13
740.00	53964.95
741.00	54355.04
742.00	54734.99
743.00	54990.89
744.00	55285.01
745.00	55620.49
746.00	55903.70
747.00	56217.33
748.00	56415.49
749.00	56702.60
750.00	56658.13
751.00	56444.36
752.00	56192.36
753.00	56018.38
754.00	55861.57
755.00	55698.51
756.00	55615.03
757.00	55513.61
758.00	55361.47
759.00	55068.90
760.00	54771.66
761.00	54759.95
762.00	54820.03
763.00	55263.17
764.00	55527.65
765.00	55903.70
766.00	56219.67
767.00	56538.76
768.00	56725.22
769.00	56680.75
770.00	56452.94
771.00	56204.06
772.00	56086.26
773.00	56019.16
774.00	56063.63
775.00	56063.63
776.00	56161.15
777.00	56335.91
778.00	56434.22
779.00	56651.11
780.00	56824.31
781.00	57141.84
782.00	57261.99
783.00	57195.67
784.00	56899.98
785.00	56572.31
786.00	56284.42
787.00	56175.98
788.00	56139.31
789.00	56199.38
790.00	56099.52
791.00	56156.47
792.00	56062.07
793.00	55984.83
794.00	55776.53
795.00	55504.24
796.00	55486.30
797.00	55493.32
798.00	55727.38
799.00	55794.47
800.00	55830.36
801.00	55888.87
802.00	55988.74
803.00	56154.91
804.00	56338.26
805.00	56691.68
806.00	56800.12
807.00	56509.11
808.00	55643.90
809.00	54504.84
810.00	53294.00
811.00	52000.46
812.00	50862.96
813.00	50287.19
814.00	50785.72
815.00	52083.94
816.00	53541.31
817.00	54409.65
818.00	54422.92
819.00	53837.00
820.00	53043.56
821.00	52807.17
822.00	53059.16
823.00	53678.63
824.00	54283.26
825.00	54849.67
826.00	55222.60
827.00	55482.40
828.00	55696.95
829.00	56104.98
830.00	56413.15
831.00	56431.88
832.00	56249.31
833.00	55919.30
834.00	55902.14
835.00	55907.60
836.00	56219.67
837.00	56478.69
838.00	56703.38
839.00	56754.09
840.00	56807.92
841.00	56934.31
842.00	57038.86
843.00	56850.05
844.00	56453.72
845.00	55976.25
846.00	55633.75
847.00	55539.35
848.00	55613.47
849.00	55957.53
850.00	56215.77
851.00	56650.33
852.00	57016.23
853.00	57420.36
854.00	57623.99
855.00	57675.48
856.00	57706.69
857.00	57571.72
858.00	57450.79
859.00	57215.18
860.00	57098.15
861.00	57009.99
862.00	57155.88
863.00	57205.03
864.00	57124.67
865.00	56558.27
866.00	55766.38
867.00	54883.22
868.00	54018.00
869.00	53393.08
870.00	52997.53
871.00	53203.50
872.00	53631.04
873.00	54280.14
874.00	54969.82
875.00	55640.00
876.00	56089.38
877.00	56288.32
878.00	56434.22
879.00	56711.96
880.00	57031.05
881.00	57403.98
882.00	57613.07
883.00	57751.16
884.00	57566.26
885.00	57194.89
886.00	56757.99
887.00	56513.80
888.00	56464.64
889.00	56496.63
890.00	56661.25
891.00	56979.56
892.00	57379.01
893.00	57556.11
894.00	57494.48
895.00	57329.08
896.00	57286.95
897.00	57211.27
898.00	57145.74
899.00	56952.26
900.00	56666.71
901.00	56210.31
902.00	55624.39
903.00	55097.77
904.00	54757.61
905.00	54752.15
906.00	54973.72
907.00	55285.79
908.00	55627.51
909.00	56042.57
910.00	56243.07
911.00	56214.21
912.00	55934.90
913.00	55778.87
914.00	55657.94
915.00	55787.45
916.00	55881.85
917.00	56152.57
918.00	56346.84
919.00	56584.79
920.00	56911.69
921.00	57127.80
922.00	57383.69
923.00	57211.27
924.00	56930.41
925.00	56399.89
926.00	56092.50
927.00	55647.02
928.00	55245.22
929.00	54981.52
930.00	54947.98
931.00	55162.53
932.00	55444.95
933.00	55771.85
934.00	55991.86
935.00	56037.89
936.00	56059.73
937.00	56112.78
938.00	56030.08
939.00	56001.22
940.00	55916.18
941.00	55739.86
942.00	55540.13
943.00	55232.74
944.00	54995.57
945.00	54780.24
946.00	54587.53
947.00	54497.03
948.00	54454.90
949.00	54225.53
950.00	54097.58
951.00	53849.49
952.00	53723.10
953.00	53694.23
954.00	53858.85
955.00	54289.51
956.00	54664.77
957.00	54937.05
958.00	55065.00
959.00	55050.18
960.00	54885.56
961.00	54772.44
962.00	54688.18
963.00	54650.73
964.00	54596.12
965.00	54452.56
966.00	54518.88
967.00	54569.59
968.00	54825.49
969.00	54979.18
970.00	55372.39
971.00	55711.77
972.00	55841.28
973.00	55532.33
974.00	55306.08
975.00	55177.35
976.00	55172.67
977.00	55029.12
978.00	54894.92
979.00	54909.75
980.00	54857.48
981.00	55104.01
982.00	55071.24
983.00	55151.60
984.00	54964.36
985.00	54902.73
986.00	54755.27
987.00	54739.67
988.00	54738.11
989.00	54678.04
990.00	54551.65
991.00	54216.17
992.00	54051.55
993.00	53663.02
994.00	53822.18
995.00	53955.59
996.00	54361.28
997.00	54661.65
998.00	54866.84
999.00	55037.70
1000.00	54967.48
1001.00	54979.96
1002.00	54813.79
1003.00	54763.85
1004.00	54690.52
1005.00	54762.29
1006.00	54740.45
1007.00	54588.31
1008.00	54561.01
1009.00	54344.90
1010.00	54310.57
1011.00	54046.87
1012.00	54014.10
1013.00	53929.84
1014.00	54028.15
1015.00	54075.74
1016.00	54150.63
1017.00	54320.71
1018.00	54659.31
1019.00	54881.66
1020.00	54669.45
1021.00	54358.94
1022.00	53899.42
1023.00	53591.25
1024.00	53372.80
1025.00	53498.40
1026.00	53805.80
1027.00	54028.15
1028.00	54135.03
1029.00	54010.98
1030.00	54038.29
1031.00	54195.88
1032.00	54399.51
1033.00	54463.49
1034.00	54425.26
1035.00	54552.43
1036.00	54629.66
1037.00	54589.87
1038.00	54408.09
1039.00	54272.34
1040.00	54145.17
1041.00	53978.21
1042.00	53864.31
1043.00	53733.24
1044.00	53636.50
1045.00	53521.81
1046.00	53360.31
1047.00	53075.55
1048.00	52787.66
1049.00	52605.10
1050.00	52749.43
1051.00	52858.66
1052.00	53019.38
1053.00	53148.10
1054.00	53261.23
1055.00	53132.50
1056.00	52851.64
1057.00	52485.73
1058.00	52108.91
1059.00	51636.12
1060.00	51320.93
1061.00	51136.02
1062.00	51388.80
1063.00	51502.71
1064.00	51741.44
1065.00	51722.72
1066.00	51809.32
1067.00	51823.36
1068.00	51902.16
1069.00	52141.67
1070.00	52504.46
1071.00	52878.16
1072.00	53154.35
1073.00	53152.01
1074.00	52914.83
1075.00	52296.93
1076.00	51934.15
1077.00	51645.48
1078.00	51693.85
1079.00	51662.64
1080.00	51689.95
1081.00	51860.81
1082.00	52044.15
1083.00	52173.66
1084.00	52183.02
1085.00	52231.40
1086.00	52209.55
1087.00	52230.61
1088.00	52005.92
1089.00	52033.23
1090.00	51774.99
1091.00	51691.51
1092.00	51491.79
1093.00	51402.07
1094.00	51482.42
1095.00	51569.02
1096.00	51709.46
1097.00	51638.46
1098.00	51552.64
1099.00	51365.40
1100.00	51031.48
1101.00	50437.76
1102.00	50005.55
1103.00	49927.53
1104.00	49975.90
1105.00	50054.70
1106.00	50107.75
1107.00	50374.57
1108.00	50705.37
1109.00	50947.22
1110.00	51294.40
1111.00	51299.86
1112.00	51383.34
1113.00	51144.61
1114.00	50905.09
1115.00	50554.79
1116.00	50231.80
1117.00	50000.08
1118.00	49637.30
1119.00	49293.24
1120.00	49001.46
1121.00	49007.70
1122.00	49212.10
1123.00	49347.86
1124.00	49521.05
1125.00	49450.84
1126.00	49430.55
1127.00	49260.48
1128.00	49049.05
1129.00	48790.03
1130.00	48470.15
1131.00	48191.63
1132.00	47938.07
1133.00	47539.40
1134.00	47273.36
1135.00	47206.26
1136.00	47444.22
1137.00	47719.62
1138.00	48092.55
1139.00	48476.40
1140.00	48848.54
1141.00	49040.46
1142.00	49169.97
1143.00	49186.36
1144.00	49141.89
1145.00	48967.91
1146.00	48928.90
1147.00	48843.08
1148.00	48857.90
1149.00	48825.92
1150.00	48722.93
1151.00	48573.14
1152.00	48417.88
1153.00	48483.42
1154.00	48268.87
1155.00	47974.74
1156.00	47551.10
1157.00	47367.76
1158.00	47199.24
1159.00	47181.30
1160.00	47109.52
1161.00	47004.98
1162.00	46773.27
1163.00	46674.18
1164.00	46560.28
1165.00	46575.88
1166.00	46437.79
1167.00	46589.92
1168.00	46790.43
1169.00	47095.48
1170.00	47054.91
1171.00	46987.03
1172.00	46763.90
1173.00	46722.55
1174.00	46570.42
1175.00	46478.36
1176.00	46268.49
1177.00	45993.87
1178.00	45673.99
1179.00	45280.00
1180.00	45148.93
1181.00	45185.60
1182.00	45468.81
1183.00	45675.55
1184.00	45789.46
1185.00	45939.25
1186.00	46060.18
1187.00	46251.33
1188.00	46363.67
1189.00	46383.96
1190.00	46436.23
1191.00	46289.56
1192.00	46181.11
1193.00	46030.54
1194.00	46136.64
1195.00	46175.65
1196.00	46212.32
1197.00	46263.81
1198.00	46361.33
1199.00	46331.68
1200.00	46248.99
1201.00	46329.34
1202.00	46539.99
1203.00	46758.44
1204.00	46713.19
1205.00	46715.53
1206.00	46553.26
1207.00	46644.54
1208.00	46636.73
1209.00	46720.21
1210.00	46596.17
1211.00	46427.65
1212.00	46465.10
1213.00	46529.07
1214.00	46579.78
1215.00	46392.54
1216.00	46191.25
1217.00	46219.34
1218.00	46138.98
1219.00	46073.45
1220.00	45761.37
1221.00	45442.28
1222.00	45192.62
1223.00	44975.73
1224.00	44785.37
1225.00	44531.81
1226.00	44497.48
1227.00	44456.14
1228.00	44426.49
1229.00	44343.01
1230.00	44356.27
1231.00	44595.01
1232.00	44822.04
1233.00	44943.75
1234.00	44790.05
1235.00	44639.48
1236.00	44612.17
1237.00	44495.14
1238.00	44360.17
1239.00	44205.70
1240.00	44018.46
1241.00	43602.62
1242.00	42867.69
1243.00	41855.80
1244.00	40561.48
1245.00	39322.56
1246.00	38400.39
1247.00	37981.43
1248.00	37755.18
1249.00	37880.01
1250.00	38303.65
1251.00	38969.92
1252.00	39806.27
1253.00	40648.86
1254.00	41397.06
1255.00	42006.37
1256.00	42302.84
1257.00	42564.98
1258.00	42639.10
1259.00	42404.27
1260.00	42366.04
1261.00	42153.83
1262.00	42181.13
1263.00	41892.47
1264.00	41695.86
1265.00	41560.89
1266.00	41620.97
1267.00	41798.85
1268.00	42061.77
1269.00	42281.00
1270.00	42086.73
1271.00	41969.71
1272.00	41988.43
1273.00	42249.79
1274.00	42448.74
1275.00	42238.09
1276.00	42049.28
1277.00	41617.07
1278.00	41408.76
1279.00	41090.44
1280.00	40696.45
1281.00	40464.74
1282.00	40382.04
1283.00	40581.77
1284.00	40667.59
1285.00	40849.37
1286.00	41000.72
1287.00	41131.01
1288.00	41244.92
1289.00	41397.84
1290.00	41439.18
1291.00	41478.19
1292.00	41471.95
1293.00	41506.28
1294.00	41496.92
1295.00	41358.05
1296.00	41373.65
1297.00	41191.87
1298.00	41187.97
1299.00	40925.05
1300.00	40804.90
1301.00	40751.85
1302.00	40755.75
1303.00	40685.53
1304.00	40531.06
1305.00	40573.19
1306.00	40453.04
1307.00	40525.60
1308.00	40339.91
1309.00	40652.76
1310.00	40605.17
1311.00	40773.69
1312.00	40781.49
1313.00	40955.47
1314.00	40909.44
1315.00	40667.59
1316.00	40486.59
1317.00	40407.79
1318.00	40366.44
1319.00	40160.47
1320.00	40065.29
1321.00	39991.95
1322.00	40042.67
1323.00	39974.79
1324.00	40115.22
1325.00	39922.52
1326.00	39880.39
1327.00	39484.06
1328.00	39404.48
1329.00	39344.41
1330.00	39406.82
1331.00	39489.52
1332.00	39621.37
1333.00	39654.14
1334.00	39913.94
1335.00	40019.26
1336.00	40304.02
1337.00	40371.12
1338.00	40234.59
1339.00	40219.77
1340.00	40148.77
1341.00	40125.36
1342.00	39866.34
1343.00	39837.48
1344.00	39913.94
1345.00	40014.58
1346.00	39940.46
1347.00	39957.63
1348.00	39873.37
1349.00	39785.99
1350.00	39505.90
1351.00	39372.49
1352.00	39177.45
1353.00	39153.26
1354.00	39109.57
1355.00	39048.72
1356.00	39007.37
1357.00	39086.95
1358.00	39118.15
1359.00	39140.00
1360.00	39200.85
1361.00	39146.24
1362.00	39133.76
1363.00	39022.19
1364.00	38843.53
1365.00	38734.31
1366.00	38527.56
1367.00	38537.70
1368.00	38466.70
1369.00	38379.32
1370.00	38180.38
1371.00	37920.58
1372.00	37872.21
1373.00	37912.00
1374.00	37824.62
1375.00	37811.35
1376.00	37704.47
1377.00	37709.93
1378.00	37553.12
1379.00	37382.26
1380.00	37192.67
1381.00	37054.58
1382.00	37058.48
1383.00	36974.22
1384.00	36817.41
1385.00	36783.08
1386.00	36998.41
1387.00	37248.07
1388.00	37589.00
1389.00	37510.99
1390.00	37553.12
1391.00	37214.52
1392.00	37136.50
1393.00	36816.63
1394.00	36452.28
1395.00	36248.66
1396.00	36190.92
1397.00	36304.05
1398.00	36375.83
1399.00	36456.18
1400.00	36498.31
1401.00	36293.91
1402.00	35973.25
1403.00	35513.73
1404.00	35317.12
1405.00	35257.83
1406.00	35421.67
1407.00	35602.67
1408.00	35890.55
1409.00	36030.99
1410.00	36098.08
1411.00	35985.74
1412.00	35825.02
1413.00	35619.05
1414.00	35576.92
1415.00	35491.10
1416.00	35302.30
1417.00	34770.22
1418.00	34396.51
1419.00	34079.76
1420.00	33861.31
1421.00	33660.80
1422.00	33794.22
1423.00	33902.66
1424.00	34094.58
1425.00	33948.69
1426.00	34027.49
1427.00	34135.93
1428.00	34384.03
1429.00	34586.88
1430.00	34823.27
1431.00	35031.58
1432.00	34998.03
1433.00	34978.53
1434.00	34815.47
1435.00	34900.51
1436.00	34724.19
1437.00	34605.60
1438.00	34298.99
1439.00	34210.83
1440.00	34039.19
1441.00	33974.44
1442.00	33997.84
1443.00	34143.74
1444.00	34227.21
1445.00	34192.11
1446.00	34379.35
1447.00	34463.61
1448.00	34508.86
1449.00	34268.56
1450.00	34331.76
1451.00	34345.02
1452.00	34178.84
1453.00	33911.24
1454.00	33501.65
1455.00	33324.55
1456.00	33148.23
1457.00	33215.32
1458.00	33340.15
1459.00	33269.15
1460.00	33261.35
1461.00	33168.51
1462.00	33130.28
1463.00	32932.90
1464.00	32726.15
1465.00	32598.98
1466.00	32369.61
1467.00	32336.06
1468.00	32189.39
1469.00	32232.30
1470.00	32121.51
1471.00	32105.13
1472.00	31994.34
1473.00	31878.88
1474.00	31729.86
1475.00	31662.77
1476.00	31646.38
1477.00	31573.83
1478.00	31545.74
1479.00	31363.96
1480.00	31129.12
1481.00	30769.46
1482.00	30600.94
1483.00	30675.84
1484.00	30790.53
1485.00	30848.26
1486.00	30939.54
1487.00	31095.58
1488.00	31213.38
1489.00	31291.40
1490.00	31133.81
1491.00	31063.59
1492.00	30757.76
1493.00	30480.02
1494.00	30061.84
1495.00	29609.34
1496.00	29094.42
1497.00	28593.54
1498.00	28345.45
1499.00	28410.98
1500.00	28653.62
1501.00	28951.65
1502.00	29238.75
1503.00	29448.62
1504.00	29486.07
1505.00	29552.38
1506.00	29349.54
1507.00	29270.74
1508.00	28982.07
1509.00	28924.34
1510.00	28774.55
1511.00	28549.07
1512.00	28571.70
1513.00	28604.47
1514.00	28874.41
1515.00	28889.23
1516.00	29017.96
1517.00	29057.75
1518.00	29127.19
1519.00	29044.49
1520.00	28833.84
1521.00	28613.83
1522.00	28308.78
1523.00	28268.99
1524.00	28226.08
1525.00	28483.54
1526.00	28542.83
1527.00	28775.33
1528.00	28934.48
1529.00	29053.07
1530.00	29092.86
1531.00	28925.12
1532.00	28861.93
1533.00	28746.46
1534.00	28738.66
1535.00	28762.06
1536.00	28681.70
1537.00	28588.08
1538.00	28547.51
1539.00	28522.55
1540.00	28476.52
1541.00	28427.37
1542.00	28507.73
1543.00	28659.86
1544.00	28868.95
1545.00	28966.47
1546.00	28965.69
1547.00	28803.41
1548.00	28623.19
1549.00	28407.08
1550.00	28211.26
1551.00	28169.91
1552.00	28152.74
1553.00	28216.72
1554.00	28293.96
1555.00	28405.52
1556.00	28398.50
1557.00	28369.63
1558.00	28444.53
1559.00	28574.04
1560.00	28513.19
1561.00	28522.55
1562.00	28459.35
1563.00	28506.94
1564.00	28446.09
1565.00	28464.04
1566.00	28394.60
1567.00	28344.67
1568.00	28285.37
1569.00	28296.30
1570.00	28215.16
1571.00	28079.41
1572.00	27860.96
1573.00	27816.49
1574.00	27757.19
1575.00	27745.49
1576.00	27564.49
1577.00	27473.21
1578.00	27329.66
1579.00	27261.78
1580.00	27252.42
1581.00	27312.49
1582.00	27288.31
1583.00	27153.34
1584.00	26950.49
1585.00	26805.38
1586.00	26742.18
1587.00	26587.71
1588.00	26692.25
1589.00	26842.04
1590.00	26951.27
1591.00	26799.13
1592.00	26626.71
1593.00	26633.74
1594.00	26739.06
1595.00	26681.33
1596.00	26786.65
1597.00	26657.92
1598.00	26579.12
1599.00	26480.04
1600.00	26512.03
1601.00	26554.16
1602.00	26434.79
1603.00	26271.73
1604.00	26202.30
1605.00	26201.52
1606.00	26280.32
1607.00	26289.68
1608.00	26265.49
1609.00	26236.63
1610.00	26203.86
1611.00	26127.40
1612.00	26072.01
1613.00	26001.01
1614.00	25986.19
1615.00	25937.82
1616.00	25872.28
1617.00	25710.78
1618.00	25578.93
1619.00	25375.31
1620.00	25254.38
1621.00	25189.63
1622.00	25223.95
1623.00	25270.76
1624.00	25215.37
1625.00	25104.59
1626.00	24989.90
1627.00	24705.13
1628.00	24590.45
1629.00	24471.08
1630.00	24631.02
1631.00	24588.11
1632.00	24560.02
1633.00	24287.74
1634.00	24234.69
1635.00	24222.20
1636.00	24457.04
1637.00	24557.68
1638.00	24467.96
1639.00	24205.82
1640.00	23875.02
1641.00	23553.59
1642.00	23263.36
1643.00	23006.69
1644.00	23062.08
1645.00	23216.55
1646.00	23660.48
1647.00	23926.52
1648.00	24274.48
1649.00	24448.46
1650.00	24698.11
1651.00	24754.29
1652.00	24695.77
1653.00	24574.06
1654.00	24429.73
1655.00	24230.79
1656.00	23830.55
1657.00	23658.92
1658.00	23559.05
1659.00	23477.91
1660.00	23471.67
1661.00	23577.78
1662.00	23900.77
1663.00	23974.11
1664.00	24028.72
1665.00	24024.04
1666.00	24107.52
1667.00	24103.62
1668.00	24129.36
1669.00	24031.84
1670.00	23958.50
1671.00	23975.67
1672.00	24000.63
1673.00	23889.85
1674.00	23786.08
1675.00	23665.94
1676.00	23635.51
1677.00	23395.21
1678.00	23177.54
1679.00	23056.62
1680.00	22938.81
1681.00	22824.12
1682.00	22648.58
1683.00	22423.89
1684.00	22150.05
1685.00	21666.34
1686.00	20965.74
1687.00	20084.14
1688.00	19240.76
1689.00	18565.13
1690.00	18310.79
1691.00	18472.29
1692.00	18867.84
1693.00	19404.60
1694.00	20010.80
1695.00	20705.94
1696.00	21181.85
1697.00	21558.67
1698.00	21863.72
1699.00	22089.98
1700.00	22253.81
1701.00	22341.19
1702.00	22555.74
1703.00	22565.88
1704.00	22590.07
1705.00	22535.46
1706.00	22492.55
1707.00	22392.69
1708.00	22335.73
1709.00	22334.95
1710.00	22369.28
1711.00	22165.65
1712.00	22097.00
1713.00	22095.44
1714.00	22214.80
1715.00	22272.54
1716.00	22312.33
1717.00	22356.02
1718.00	22393.47
1719.00	22365.38
1720.00	22367.72
1721.00	22231.97
1722.00	22147.71
1723.00	22001.82
1724.00	22011.96
1725.00	21937.84
1726.00	22174.24
1727.00	22126.64
1728.00	22099.34
1729.00	21989.33
1730.00	22097.78
1731.00	22185.16
1732.00	22120.40
1733.00	21947.20
1734.00	21856.70
1735.00	21632.79
1736.00	21516.54
1737.00	21331.64
1738.00	21251.28
1739.00	21167.80
1740.00	21049.22
1741.00	21078.86
1742.00	21019.57
1743.00	21028.93
1744.00	20970.42
1745.00	21037.52
1746.00	21121.77
1747.00	20988.36
1748.00	20906.45
1749.00	20860.41
1750.00	20994.61
1751.00	21087.45
1752.00	21030.49
1753.00	21039.86
1754.00	21058.58
1755.00	21076.52
1756.00	21021.13
1757.00	20871.34
1758.00	20604.52
1759.00	20372.80
1760.00	20262.80
1761.00	20366.56
1762.00	20350.96
1763.00	20276.84
1764.00	20257.34
1765.00	20308.83
1766.00	20304.15
1767.00	20236.27
1768.00	20146.55
1769.00	20055.27
1770.00	20105.20
1771.00	19969.45
1772.00	19940.58
1773.00	19817.32
1774.00	19939.80
1775.00	19992.86
1776.00	20070.09
1777.00	20074.77
1778.00	20027.18
1779.00	19920.30
1780.00	19819.66
1781.00	19650.36
1782.00	19532.55
1783.00	19420.20
1784.00	19460.77
1785.00	19502.12
1786.00	19372.61
1787.00	19299.28
1788.00	19131.54
1789.00	19237.64
1790.00	19122.18
1791.00	19068.34
1792.00	18934.93
1793.00	18998.91
1794.00	18863.94
1795.00	18700.10
1796.00	18556.55
1797.00	18593.22
1798.00	18574.49
1799.00	18523.00
1800.00	18342.78
1801.00	18446.54
1802.00	18411.43
1803.00	18498.03
1804.00	18342.78
1805.00	18288.95
1806.00	18346.68
1807.00	18462.93
1808.00	18403.63
1809.00	18351.36
1810.00	18176.60
1811.00	18132.91
1812.00	17909.00
1813.00	17888.71
1814.00	17871.55
1815.00	17797.43
1816.00	17796.65
1817.00	17657.00
1818.00	17705.37
1819.00	17596.93
1820.00	17483.80
1821.00	17375.36
1822.00	17326.99
1823.00	17358.19
1824.00	17373.02
1825.00	17378.48
1826.00	17559.48
1827.00	17629.70
1828.00	17607.85
1829.00	17444.01
1830.00	17198.26
1831.00	17090.59
1832.00	17085.91
1833.00	17154.57
1834.00	17124.92
1835.00	17067.97
1836.00	16869.80
1837.00	16787.88
1838.00	16684.90
1839.00	16828.45
1840.00	16794.12
1841.00	16763.70
1842.00	16684.12
1843.00	16571.77
1844.00	16436.02
1845.00	16289.35
1846.00	16205.09
1847.00	16160.62
1848.00	16065.44
1849.00	16054.51
1850.00	15951.53
1851.00	15999.12
1852.00	15910.18
1853.00	15902.38
1854.00	15781.45
1855.00	15772.09
1856.00	15763.51
1857.00	15811.88
1858.00	15770.53
1859.00	15709.68
1860.00	15600.45
1861.00	15523.99
1862.00	15393.70
1863.00	15403.07
1864.00	15311.00
1865.00	15318.81
1866.00	15218.94
1867.00	15243.13
1868.00	15173.69
1869.00	15096.46
1870.00	14933.40
1871.00	14913.11
1872.00	14885.81
1873.00	14947.44
1874.00	14831.97
1875.00	14789.06
1876.00	14736.01
1877.00	14700.90
1878.00	14694.66
1879.00	14550.33
1880.00	14565.15
1881.00	14464.51
1882.00	14408.34
1883.00	14200.03
1884.00	13973.00
1885.00	13939.45
1886.00	13880.16
1887.00	13910.58
1888.00	13782.63
1889.00	13687.45
1890.00	13613.34
1891.00	13635.96
1892.00	13717.10
1893.00	13742.07
1894.00	13751.43
1895.00	13685.11
1896.00	13603.97
1897.00	13502.55
1898.00	13456.52
1899.00	13375.38
1900.00	13288.78
1901.00	13183.46
1902.00	13048.49
1903.00	12867.49
1904.00	12475.84
1905.00	11915.67
1906.00	11008.32
1907.00	10029.20
1908.00	9171.78
1909.00	8631.90
1910.00	8338.55
1911.00	8125.56
1912.00	8120.10
1913.00	8307.34
1914.00	8787.15
1915.00	9305.97
1916.00	9713.22
1917.00	10054.16
1918.00	10191.47
1919.00	10279.63
1920.00	10221.12
1921.00	10118.14
1922.00	9936.35
1923.00	9770.18
1924.00	9685.14
1925.00	9736.63
1926.00	9741.31
1927.00	9735.85
1928.00	9713.22
1929.00	9715.56
1930.00	9858.34
1931.00	9934.79
1932.00	10035.44
1933.00	9976.14
1934.00	9939.48
1935.00	9997.21
1936.00	10010.47
1937.00	10159.49
1938.00	10214.10
1939.00	10299.14
1940.00	10356.87
1941.00	10390.42
1942.00	10335.03
1943.00	10322.54
1944.00	10313.18
1945.00	10423.19
1946.00	10438.01
1947.00	10363.11
1948.00	10304.60
1949.00	10252.33
1950.00	10288.21
1951.00	10263.25
1952.00	10238.28
1953.00	10146.22
1954.00	10154.02
1955.00	10075.23
1956.00	9994.09
1957.00	9898.13
1958.00	9810.75
1959.00	9721.02
1960.00	9641.45
1961.00	9568.89
1962.00	9578.25
1963.00	9518.18
1964.00	9457.32
1965.00	9348.88
1966.00	9350.44
1967.00	9338.74
1968.00	9387.89
1969.00	9369.94
1970.00	9403.49
1971.00	9272.42
1972.00	9217.03
1973.00	9224.83
1974.00	9253.70
1975.00	9181.14
1976.00	9110.15
1977.00	9155.40
1978.00	9276.32
1979.00	9299.73
1980.00	9402.71
1981.00	9429.24
1982.00	9483.07
1983.00	9398.81
1984.00	9327.82
1985.00	9240.44
1986.00	9182.70
1987.00	9096.88
1988.00	9024.33
1989.00	8876.87
1990.00	8794.95
1991.00	8726.30
1992.00	8684.95
1993.00	8599.13
1994.00	8583.52
1995.00	8549.98
1996.00	8443.09
1997.00	8257.41
1998.00	8258.97
1999.00	8247.27
2000.00	8288.62
2001.00	8173.93
2002.00	8233.22
2003.00	8189.53
2004.00	8150.53
2005.00	8043.64
2006.00	8008.53
2007.00	8020.24
2008.00	7963.28
2009.00	7872.00
2010.00	7796.32
2011.00	7773.70
2012.00	7751.85
2013.00	7775.26
2014.00	7711.28
2015.00	7726.11
2016.00	7609.86
2017.00	7604.40
2018.00	7551.35
2019.00	7520.14
2020.00	7475.67
2021.00	7450.71
2022.00	7437.44
2023.00	7362.55
2024.00	7332.90
2025.00	7233.82
2026.00	7261.90
2027.00	7255.66
2028.00	7270.48
2029.00	7294.67
2030.00	7291.55
2031.00	7298.57
2032.00	7230.70
2033.00	7219.77
2034.00	7227.57
2035.00	7218.99
2036.00	7168.28
2037.00	7161.26
2038.00	7169.06
2039.00	7148.00
2040.00	7175.30
2041.00	7190.91
2042.00	7144.88
2043.00	7027.07
2044.00	6911.60
2045.00	6841.39
2046.00	6769.61
2047.00	6691.59
>>>>>End Processed Spectral Data<<<<<
