SpectraSuite Data File
++++++++++++++++++++++++++++++++++++
Date: Thu Nov 16 13:32:54 EST 2017
User: cheriyan
Dark Spectrum Present: No
Reference Spectrum Present: No
Number of Sampled Component Spectra: 1
Spectrometers: USB2+H05261
Integration Time (usec): 90000 (USB2+H05261)
Spectra Averaged: 1 (USB2+H05261)
Boxcar Smoothing: 1 (USB2+H05261)
Correct for Electrical Dark: No (USB2+H05261)
Strobe/Lamp Enabled: No (USB2+H05261)
Correct for Detector Non-linearity: No (USB2+H05261)
Correct for Stray Light: No (USB2+H05261)
Number of Pixels in Processed Spectrum: 2048
>>>>>Begin Processed Spectral Data<<<<<
0.00	346.40
1.00	346.40
2.00	330.80
3.00	294.91
4.00	264.48
5.00	249.66
6.00	252.00
7.00	216.11
8.00	231.71
9.00	230.15
10.00	265.26
11.00	275.40
12.00	278.52
13.00	266.04
14.00	253.56
15.00	258.24
16.00	278.52
17.00	287.89
18.00	294.91
19.00	303.49
20.00	295.69
21.00	298.03
22.00	317.53
23.00	780.96
24.00	2399.05
25.00	4165.37
26.00	5518.20
27.00	5675.80
28.00	5529.91
29.00	5313.80
30.00	5131.23
31.00	5132.01
32.00	5175.70
33.00	5246.70
34.00	5190.53
35.00	5047.76
36.00	4774.69
37.00	4545.32
38.00	4492.27
39.00	4635.04
40.00	4826.18
41.00	4889.38
42.00	4823.84
43.00	4760.65
44.00	4777.81
45.00	5004.07
46.00	5263.08
47.00	5562.67
48.00	5742.11
49.00	5756.94
50.00	5754.60
51.00	5667.22
52.00	5703.11
53.00	5828.71
54.00	6015.18
55.00	6239.87
56.00	6445.06
57.00	6691.59
58.00	6917.06
59.00	7097.28
60.00	7251.76
61.00	7292.33
62.00	7191.69
63.00	6945.15
64.00	6719.68
65.00	6402.15
66.00	6166.53
67.00	5998.01
68.00	5958.22
69.00	5965.25
70.00	6101.78
71.00	6320.23
72.00	6587.83
73.00	6814.08
74.00	6924.08
75.00	6844.51
76.00	6629.96
77.00	6432.57
78.00	6159.51
79.00	5843.54
80.00	5508.06
81.00	5271.67
82.00	5103.15
83.00	4868.31
84.00	4745.83
85.00	4593.69
86.00	4537.52
87.00	4464.96
88.00	4468.86
89.00	4575.75
90.00	4798.10
91.00	5155.42
92.00	5567.35
93.00	5994.89
94.00	6310.08
95.00	6568.32
96.00	6604.21
97.00	6523.07
98.00	6300.72
99.00	6112.70
100.00	6056.53
101.00	6133.76
102.00	6310.08
103.00	6482.50
104.00	6524.63
105.00	6553.50
106.00	6478.60
107.00	6464.56
108.00	6441.93
109.00	6497.33
110.00	6604.21
111.00	6627.62
112.00	6564.42
113.00	6487.18
114.00	6541.02
115.00	6721.24
116.00	7016.93
117.00	7421.84
118.00	7824.41
119.00	8115.42
120.00	8285.50
121.00	8383.80
122.00	8436.07
123.00	8470.40
124.00	8588.99
125.00	8749.70
126.00	8982.98
127.00	9234.19
128.00	9508.04
129.00	9533.78
130.00	9378.53
131.00	9013.40
132.00	8645.16
133.00	8217.62
134.00	7662.13
135.00	7001.32
136.00	6209.44
137.00	5457.35
138.00	4881.58
139.00	4666.25
140.00	4826.18
141.00	5390.25
142.00	6108.02
143.00	6888.20
144.00	7623.91
145.00	8312.02
146.00	8904.18
147.00	9435.48
148.00	9743.65
149.00	9986.29
150.00	9853.66
151.00	9644.57
152.00	9213.91
153.00	8460.26
154.00	7578.65
155.00	6635.42
156.00	6056.53
157.00	5775.66
158.00	6047.16
159.00	6777.41
160.00	7888.39
161.00	9082.06
162.00	10202.40
163.00	11042.65
164.00	11700.34
165.00	12180.93
166.00	12638.11
167.00	12933.80
168.00	13224.81
169.00	13397.23
170.00	13547.02
171.00	13706.18
172.00	13767.81
173.00	13820.86
174.00	13842.71
175.00	14047.12
176.00	14251.52
177.00	14393.51
178.00	14559.69
179.00	14855.38
180.00	15066.03
181.00	15229.87
182.00	15240.79
183.00	15370.30
184.00	15397.60
185.00	15413.99
186.00	15369.52
187.00	15387.46
188.00	15217.38
189.00	14991.13
190.00	14806.23
191.00	15025.46
192.00	15314.13
193.00	15619.18
194.00	15596.55
195.00	15418.67
196.00	15086.31
197.00	14859.28
198.00	14945.10
199.00	15178.37
200.00	15399.94
201.00	15438.95
202.00	15325.05
203.00	15148.73
204.00	14976.31
205.00	14773.46
206.00	14688.42
207.00	14679.06
208.00	14892.05
209.00	15112.84
210.00	15350.79
211.00	15422.57
212.00	15426.47
213.00	15510.73
214.00	15744.78
215.00	16073.24
216.00	16319.78
217.00	16624.05
218.00	16858.88
219.00	17145.20
220.00	17211.52
221.00	17210.74
222.00	16855.76
223.00	16315.87
224.00	15736.20
225.00	15250.93
226.00	15080.07
227.00	15059.01
228.00	15481.08
229.00	16038.13
230.00	16783.98
231.00	17318.40
232.00	17765.45
233.00	18072.84
234.00	18283.48
235.00	18418.46
236.00	18504.28
237.00	18544.84
238.00	18496.47
239.00	18357.60
240.00	18179.72
241.00	18065.03
242.00	18097.02
243.00	18112.63
244.00	18448.88
245.00	18679.82
246.00	18951.32
247.00	18808.55
248.00	18686.84
249.00	18738.33
250.00	18827.27
251.00	18947.42
252.00	18874.08
253.00	18860.04
254.00	18926.35
255.00	19221.26
256.00	19648.80
257.00	20024.06
258.00	20269.04
259.00	20325.21
260.00	20304.15
261.00	20073.21
262.00	19765.82
263.00	19426.45
264.00	19298.50
265.00	19201.76
266.00	19268.85
267.00	19334.39
268.00	19502.12
269.00	19626.95
270.00	19610.57
271.00	19691.71
272.00	19928.88
273.00	20272.16
274.00	20487.49
275.00	20372.80
276.00	20091.16
277.00	19628.51
278.00	19409.28
279.00	19687.81
280.00	20130.17
281.00	20645.87
282.00	21085.89
283.00	21420.58
284.00	21628.11
285.00	21543.85
286.00	21660.10
287.00	21405.76
288.00	21088.23
289.00	20574.87
290.00	20035.77
291.00	19480.28
292.00	19200.19
293.00	19417.86
294.00	19979.59
295.00	20298.69
296.00	20491.39
297.00	20361.10
298.00	20418.83
299.00	20529.62
300.00	20673.95
301.00	20467.20
302.00	20188.68
303.00	20096.62
304.00	20139.53
305.00	20282.30
306.00	20192.58
307.00	20097.40
308.00	19736.96
309.00	19723.69
310.00	19871.93
311.00	20286.20
312.00	20272.16
313.00	20139.53
314.00	19528.65
315.00	19040.26
316.00	18676.69
317.00	18782.80
318.00	19085.51
319.00	19446.73
320.00	19856.32
321.00	19952.29
322.00	19803.27
323.00	19426.45
324.00	19180.69
325.00	19086.29
326.00	19001.25
327.00	18901.39
328.00	18402.07
329.00	17675.73
330.00	16764.48
331.00	15821.24
332.00	15085.53
333.00	14572.18
334.00	14488.70
335.00	14736.01
336.00	15396.82
337.00	16571.77
338.00	18181.28
339.00	20003.78
340.00	21419.80
341.00	22171.89
342.00	21798.97
343.00	21273.91
344.00	20722.32
345.00	20941.55
346.00	21418.24
347.00	22033.02
348.00	22335.73
349.00	22229.63
350.00	21465.83
351.00	20573.31
352.00	19757.24
353.00	19681.56
354.00	20146.55
355.00	20883.82
356.00	21484.56
357.00	21955.01
358.00	22118.84
359.00	22434.03
360.00	22558.08
361.00	23058.96
362.00	23386.63
363.00	23821.19
364.00	23928.86
365.00	23998.29
366.00	24001.41
367.00	23865.66
368.00	23536.43
369.00	23089.38
370.00	22913.06
371.00	22850.65
372.00	22618.16
373.00	22140.69
374.00	21502.50
375.00	21175.61
376.00	21005.53
377.00	21071.84
378.00	21351.93
379.00	21887.13
380.00	22624.40
381.00	23313.30
382.00	23881.27
383.00	24163.69
384.00	23966.31
385.00	23742.39
386.00	23501.32
387.00	23679.20
388.00	24062.27
389.00	24730.88
390.00	25278.57
391.00	25605.46
392.00	25802.85
393.00	26196.06
394.00	26586.15
395.00	26955.17
396.00	27077.66
397.00	27455.26
398.00	27614.42
399.00	27815.71
400.00	27526.26
401.00	27492.71
402.00	27436.54
403.00	27637.05
404.00	27880.46
405.00	28059.12
406.00	28315.02
407.00	28095.01
408.00	27732.23
409.00	27589.45
410.00	27835.21
411.00	28201.11
412.00	27797.76
413.00	27065.96
414.00	26292.80
415.00	25827.03
416.00	25756.82
417.00	25765.40
418.00	26128.18
419.00	26536.99
420.00	27078.44
421.00	27511.44
422.00	27854.72
423.00	28328.28
424.00	28568.58
425.00	28836.18
426.00	28680.14
427.00	28499.14
428.00	28243.24
429.00	28343.11
430.00	28423.47
431.00	28397.72
432.00	28260.41
433.00	28130.90
434.00	28247.93
435.00	28413.32
436.00	28638.80
437.00	28980.51
438.00	29255.14
439.00	29695.16
440.00	30174.97
441.00	30721.09
442.00	30998.06
443.00	30909.89
444.00	30598.60
445.00	30429.30
446.00	30176.53
447.00	30121.91
448.00	30002.55
449.00	29748.99
450.00	29407.27
451.00	28936.04
452.00	28502.26
453.00	27969.40
454.00	27641.73
455.00	27514.56
456.00	27754.85
457.00	28124.66
458.00	28723.83
459.00	29055.41
460.00	29555.50
461.00	29571.89
462.00	29699.06
463.00	29411.95
464.00	29331.59
465.00	29198.96
466.00	29134.99
467.00	29428.34
468.00	29662.39
469.00	30234.26
470.00	30563.50
471.00	30774.14
472.00	30757.76
473.00	30763.22
474.00	31095.58
475.00	31282.04
476.00	31486.45
477.00	31601.91
478.00	31826.60
479.00	31780.57
480.00	31354.60
481.00	31013.66
482.00	30573.64
483.00	30310.72
484.00	30410.58
485.00	30622.01
486.00	31059.69
487.00	30873.23
488.00	30891.95
489.00	30778.82
490.00	30715.63
491.00	30831.10
492.00	30898.97
493.00	30927.06
494.00	30947.34
495.00	30998.84
496.00	31423.25
497.00	31768.87
498.00	31991.22
499.00	31910.86
500.00	31708.02
501.00	31786.82
502.00	32080.16
503.00	32254.92
504.00	32399.26
505.00	32410.18
506.00	32520.18
507.00	32800.27
508.00	32820.55
509.00	32975.03
510.00	32648.91
511.00	32527.99
512.00	32323.58
513.00	32292.37
514.00	32165.20
515.00	32080.94
516.00	31790.72
517.00	31551.98
518.00	31210.26
519.00	31119.76
520.00	31409.21
521.00	31517.65
522.00	31703.34
523.00	31864.05
524.00	32233.86
525.00	32549.83
526.00	32160.52
527.00	31786.04
528.00	31126.78
529.00	30732.79
530.00	30483.92
531.00	30518.25
532.00	30906.77
533.00	31177.50
534.00	31387.36
535.00	31505.95
536.00	31338.21
537.00	31255.51
538.00	31211.82
539.00	31356.94
540.00	31557.44
541.00	31647.94
542.00	31700.22
543.00	31758.73
544.00	31757.95
545.00	31889.02
546.00	31483.33
547.00	31275.02
548.00	30909.11
549.00	30963.73
550.00	30885.71
551.00	30917.70
552.00	30970.75
553.00	31147.07
554.00	31544.18
555.00	32096.55
556.00	32519.40
557.00	33140.43
558.00	33708.40
559.00	34119.55
560.00	34122.67
561.00	34022.03
562.00	33692.79
563.00	33403.35
564.00	32921.98
565.00	32907.93
566.00	33190.36
567.00	33388.52
568.00	33532.08
569.00	33474.34
570.00	33911.24
571.00	34470.63
572.00	34775.68
573.00	34764.76
574.00	34639.15
575.00	34716.39
576.00	34901.29
577.00	34847.46
578.00	34829.51
579.00	34610.28
580.00	34646.95
581.00	34396.51
582.00	34426.16
583.00	34304.45
584.00	34616.52
585.00	34922.35
586.00	35651.04
587.00	35897.58
588.00	36117.59
589.00	36402.35
590.00	37014.79
591.00	37731.78
592.00	37997.82
593.00	38052.43
594.00	37723.19
595.00	37539.85
596.00	37572.62
597.00	37959.59
598.00	38710.90
599.00	39317.10
600.00	39683.00
601.00	39519.95
602.00	39554.27
603.00	39629.95
604.00	39920.18
605.00	40384.38
606.00	40453.82
607.00	40517.01
608.00	40412.47
609.00	40803.34
610.00	41133.35
611.00	41409.54
612.00	41696.64
613.00	42188.94
614.00	42425.33
615.00	42419.09
616.00	42243.55
617.00	42205.32
618.00	42574.34
619.00	42674.21
620.00	42888.76
621.00	42990.96
622.00	43328.78
623.00	43826.53
624.00	43693.90
625.00	43434.10
626.00	42979.26
627.00	43092.38
628.00	43419.28
629.00	43882.70
630.00	44293.08
631.00	44184.63
632.00	43432.54
633.00	42662.50
634.00	41385.35
635.00	39699.39
636.00	37928.38
637.00	37298.00
638.00	37670.92
639.00	38579.05
640.00	39644.77
641.00	40804.90
642.00	41844.10
643.00	42633.64
644.00	43534.74
645.00	44252.51
646.00	45182.48
647.00	45791.80
648.00	46444.81
649.00	46696.03
650.00	46618.01
651.00	46396.44
652.00	45837.83
653.00	45855.00
654.00	46220.12
655.00	47347.48
656.00	48365.61
657.00	49283.88
658.00	49773.05
659.00	50212.29
660.00	50347.26
661.00	50470.53
662.00	50216.19
663.00	49958.73
664.00	49753.55
665.00	49782.41
666.00	49759.01
667.00	49532.76
668.00	49022.52
669.00	48383.55
670.00	48007.51
671.00	48088.65
672.00	48708.89
673.00	49608.43
674.00	50483.80
675.00	51158.65
676.00	51422.35
677.00	51353.69
678.00	51067.37
679.00	50833.32
680.00	50908.99
681.00	51160.99
682.00	51799.18
683.00	52368.71
684.00	53073.99
685.00	53361.09
686.00	53528.05
687.00	53496.06
688.00	53329.89
689.00	53027.96
690.00	52597.30
691.00	52423.32
692.00	52488.07
693.00	52905.47
694.00	53358.75
695.00	53836.22
696.00	53950.91
697.00	53893.96
698.00	53976.65
699.00	54083.54
700.00	54368.30
701.00	54500.93
702.00	54469.73
703.00	54041.41
704.00	53340.81
705.00	52864.90
706.00	52622.26
707.00	52830.57
708.00	53364.99
709.00	53938.43
710.00	54399.51
711.00	54557.89
712.00	54777.90
713.00	54729.53
714.00	54629.66
715.00	54279.36
716.00	53830.76
717.00	53567.84
718.00	53219.88
719.00	53226.12
720.00	53095.83
721.00	53081.01
722.00	52941.36
723.00	52683.12
724.00	52665.95
725.00	52511.48
726.00	52773.62
727.00	53071.65
728.00	53478.12
729.00	53668.48
730.00	53785.51
731.00	53993.82
732.00	54285.61
733.00	54441.64
734.00	54404.19
735.00	54064.03
736.00	53602.17
737.00	53173.07
738.00	52953.84
739.00	53010.79
740.00	53439.11
741.00	53922.04
742.00	54312.91
743.00	54386.25
744.00	54533.70
745.00	54865.28
746.00	55344.31
747.00	55805.39
748.00	56051.15
749.00	56129.95
750.00	55985.61
751.00	55754.68
752.00	55640.00
753.00	55375.51
754.00	55218.70
755.00	55020.53
756.00	55051.74
757.00	55029.12
758.00	54864.50
759.00	54489.23
760.00	54084.32
761.00	53988.36
762.00	54092.90
763.00	54492.35
764.00	54869.18
765.00	55300.62
766.00	55678.22
767.00	55981.71
768.00	56103.42
769.00	56111.22
770.00	55902.92
771.00	55704.75
772.00	55526.09
773.00	55483.96
774.00	55544.03
775.00	55485.52
776.00	55448.07
777.00	55469.14
778.00	55682.12
779.00	55966.89
780.00	56191.58
781.00	56480.25
782.00	56701.04
783.00	56774.37
784.00	56491.95
785.00	56086.26
786.00	55749.22
787.00	55534.67
788.00	55374.73
789.00	55356.01
790.00	55373.95
791.00	55519.07
792.00	55489.42
793.00	55342.75
794.00	55081.39
795.00	54843.43
796.00	54809.10
797.00	54802.08
798.00	54984.65
799.00	55125.86
800.00	55259.27
801.00	55377.86
802.00	55486.30
803.00	55650.14
804.00	55737.52
805.00	56032.42
806.00	56031.64
807.00	55810.85
808.00	55112.59
809.00	54047.65
810.00	52734.61
811.00	51146.95
812.00	49863.55
813.00	49275.30
814.00	49800.36
815.00	51238.23
816.00	52770.50
817.00	53714.51
818.00	53748.84
819.00	53100.51
820.00	52349.20
821.00	52019.19
822.00	52302.39
823.00	52977.25
824.00	53604.51
825.00	54098.36
826.00	54356.60
827.00	54735.77
828.00	55148.48
829.00	55515.17
830.00	55786.67
831.00	55766.38
832.00	55685.25
833.00	55308.42
834.00	55265.51
835.00	55329.48
836.00	55668.86
837.00	55838.16
838.00	55991.86
839.00	56147.11
840.00	56302.37
841.00	56423.29
842.00	56388.97
843.00	56160.37
844.00	55707.09
845.00	55322.46
846.00	55009.61
847.00	54919.11
848.00	54940.17
849.00	55235.08
850.00	55670.42
851.00	56078.46
852.00	56434.22
853.00	56748.63
854.00	56999.07
855.00	57100.49
856.00	56987.36
857.00	56892.18
858.00	56699.48
859.00	56553.58
860.00	56461.52
861.00	56438.90
862.00	56655.01
863.00	56676.85
864.00	56616.78
865.00	56049.59
866.00	55243.66
867.00	54225.53
868.00	53214.42
869.00	52691.70
870.00	52430.34
871.00	52618.36
872.00	52992.07
873.00	53647.42
874.00	54442.42
875.00	55032.24
876.00	55458.21
877.00	55654.04
878.00	55785.89
879.00	56037.11
880.00	56283.64
881.00	56571.53
882.00	56717.42
883.00	56935.87
884.00	56868.00
885.00	56580.89
886.00	56134.63
887.00	55934.90
888.00	55819.44
889.00	55891.99
890.00	56036.33
891.00	56349.96
892.00	56669.83
893.00	56725.22
894.00	56836.79
895.00	56767.35
896.00	56836.79
897.00	56670.61
898.00	56519.26
899.00	56341.38
900.00	56099.52
901.00	55703.19
902.00	55095.43
903.00	54474.41
904.00	54022.68
905.00	54014.10
906.00	54255.96
907.00	54736.55
908.00	55066.56
909.00	55538.57
910.00	55662.62
911.00	55620.49
912.00	55299.84
913.00	55116.50
914.00	55019.75
915.00	55124.30
916.00	55313.88
917.00	55558.08
918.00	55798.37
919.00	55874.05
920.00	56143.99
921.00	56409.25
922.00	56665.15
923.00	56542.66
924.00	56240.73
925.00	55841.28
926.00	55610.35
927.00	55101.67
928.00	54727.97
929.00	54258.30
930.00	54259.86
931.00	54439.30
932.00	54900.39
933.00	55265.51
934.00	55463.67
935.00	55384.88
936.00	55377.86
937.00	55442.61
938.00	55340.41
939.00	55279.55
940.00	55123.52
941.00	55007.27
942.00	54794.28
943.00	54571.15
944.00	54457.24
945.00	54288.73
946.00	54106.16
947.00	53954.81
948.00	53922.04
949.00	53686.43
950.00	53512.45
951.00	53166.05
952.00	53036.54
953.00	53039.66
954.00	53296.34
955.00	53672.38
956.00	53964.17
957.00	54121.77
958.00	54312.13
959.00	54428.38
960.00	54411.99
961.00	54078.08
962.00	54081.20
963.00	53996.94
964.00	54067.94
965.00	53812.04
966.00	53852.61
967.00	54067.16
968.00	54350.36
969.00	54530.58
970.00	54869.18
971.00	55117.28
972.00	55203.10
973.00	54876.98
974.00	54592.22
975.00	54546.18
976.00	54561.79
977.00	54577.39
978.00	54460.37
979.00	54383.91
980.00	54220.85
981.00	54360.50
982.00	54337.10
983.00	54360.50
984.00	54255.18
985.00	54184.18
986.00	54050.77
987.00	53976.65
988.00	54053.89
989.00	54057.79
990.00	53860.41
991.00	53495.28
992.00	53241.73
993.00	52968.66
994.00	53018.60
995.00	53311.94
996.00	53776.15
997.00	54133.47
998.00	54259.08
999.00	54330.08
1000.00	54257.52
1001.00	54279.36
1002.00	54087.44
1003.00	53945.45
1004.00	53936.87
1005.00	53889.27
1006.00	54004.74
1007.00	53824.52
1008.00	53841.68
1009.00	53611.53
1010.00	53393.08
1011.00	53162.15
1012.00	53287.76
1013.00	53366.55
1014.00	53419.61
1015.00	53308.82
1016.00	53508.55
1017.00	53728.56
1018.00	53980.56
1019.00	54061.69
1020.00	53963.39
1021.00	53745.72
1022.00	53303.36
1023.00	52953.84
1024.00	52693.26
1025.00	52775.18
1026.00	53020.16
1027.00	53196.48
1028.00	53348.61
1029.00	53362.65
1030.00	53483.58
1031.00	53684.87
1032.00	53844.02
1033.00	53999.28
1034.00	53868.21
1035.00	53905.66
1036.00	53888.49
1037.00	53925.16
1038.00	53714.51
1039.00	53540.53
1040.00	53299.46
1041.00	53234.70
1042.00	53077.11
1043.00	53041.22
1044.00	52888.31
1045.00	52774.40
1046.00	52499.78
1047.00	52351.54
1048.00	52086.28
1049.00	52089.40
1050.00	52138.55
1051.00	52301.61
1052.00	52379.63
1053.00	52509.14
1054.00	52559.07
1055.00	52568.43
1056.00	52242.32
1057.00	51851.45
1058.00	51370.86
1059.00	50933.96
1060.00	50736.57
1061.00	50609.40
1062.00	50744.37
1063.00	50898.07
1064.00	50989.35
1065.00	50952.68
1066.00	50894.17
1067.00	51013.54
1068.00	51153.97
1069.00	51392.70
1070.00	51673.57
1071.00	52102.67
1072.00	52279.77
1073.00	52297.71
1074.00	52168.98
1075.00	51916.20
1076.00	51483.98
1077.00	51207.80
1078.00	51033.04
1079.00	50978.43
1080.00	50824.73
1081.00	50891.05
1082.00	51143.83
1083.00	51412.99
1084.00	51652.50
1085.00	51712.58
1086.00	51641.58
1087.00	51469.16
1088.00	51217.16
1089.00	51037.72
1090.00	50889.49
1091.00	50778.70
1092.00	50783.38
1093.00	50700.68
1094.00	50921.48
1095.00	50903.53
1096.00	50972.19
1097.00	50855.94
1098.00	50743.59
1099.00	50459.61
1100.00	50103.07
1101.00	49756.67
1102.00	49528.08
1103.00	49345.51
1104.00	49185.58
1105.00	49244.87
1106.00	49290.90
1107.00	49527.30
1108.00	49839.37
1109.00	50173.28
1110.00	50588.34
1111.00	50534.51
1112.00	50673.38
1113.00	50514.22
1114.00	50356.63
1115.00	49961.08
1116.00	49578.01
1117.00	49300.26
1118.00	48896.13
1119.00	48514.62
1120.00	48330.50
1121.00	48353.91
1122.00	48577.04
1123.00	48527.89
1124.00	48630.87
1125.00	48569.24
1126.00	48610.59
1127.00	48454.55
1128.00	48200.99
1129.00	48010.63
1130.00	47654.87
1131.00	47327.97
1132.00	46844.26
1133.00	46552.48
1134.00	46293.46
1135.00	46177.21
1136.00	46374.59
1137.00	46741.28
1138.00	47221.87
1139.00	47488.69
1140.00	47825.73
1141.00	48063.68
1142.00	48264.97
1143.00	48231.42
1144.00	48133.90
1145.00	48159.64
1146.00	48151.06
1147.00	47933.39
1148.00	47778.92
1149.00	47624.44
1150.00	47779.70
1151.00	47776.58
1152.00	47858.49
1153.00	47721.18
1154.00	47388.05
1155.00	47028.38
1156.00	46830.22
1157.00	46808.37
1158.00	46645.32
1159.00	46384.74
1160.00	46082.03
1161.00	45984.51
1162.00	45925.99
1163.00	45903.37
1164.00	45823.01
1165.00	45861.24
1166.00	45739.53
1167.00	45751.23
1168.00	45888.54
1169.00	46136.64
1170.00	46212.32
1171.00	46166.29
1172.00	46013.37
1173.00	45865.14
1174.00	45721.58
1175.00	45643.57
1176.00	45353.34
1177.00	44959.35
1178.00	44417.91
1179.00	44172.93
1180.00	43980.23
1181.00	44133.14
1182.00	44408.54
1183.00	44680.05
1184.00	44931.26
1185.00	45024.89
1186.00	45119.29
1187.00	45251.14
1188.00	45272.98
1189.00	45432.92
1190.00	45451.64
1191.00	45596.76
1192.00	45489.87
1193.00	45269.86
1194.00	45207.45
1195.00	45265.96
1196.00	45348.66
1197.00	45305.75
1198.00	45267.52
1199.00	45303.41
1200.00	45435.26
1201.00	45481.29
1202.00	45549.17
1203.00	45645.91
1204.00	45805.84
1205.00	45975.14
1206.00	45893.22
1207.00	45946.28
1208.00	45911.95
1209.00	45899.47
1210.00	45941.60
1211.00	45794.14
1212.00	45808.18
1213.00	45590.51
1214.00	45490.65
1215.00	45315.89
1216.00	45365.04
1217.00	45361.14
1218.00	45304.97
1219.00	45149.71
1220.00	45058.43
1221.00	44787.71
1222.00	44528.69
1223.00	44302.44
1224.00	44196.34
1225.00	43726.67
1226.00	43531.62
1227.00	43468.43
1228.00	43552.69
1229.00	43457.51
1230.00	43535.52
1231.00	43883.48
1232.00	44023.14
1233.00	44144.84
1234.00	44003.63
1235.00	44098.03
1236.00	43914.69
1237.00	43848.38
1238.00	43474.67
1239.00	43347.50
1240.00	42989.40
1241.00	42687.47
1242.00	41936.16
1243.00	41038.17
1244.00	39853.86
1245.00	38749.91
1246.00	37794.97
1247.00	37264.45
1248.00	36914.93
1249.00	37022.59
1250.00	37323.74
1251.00	38069.59
1252.00	38873.96
1253.00	39899.89
1254.00	40774.47
1255.00	41347.12
1256.00	41623.31
1257.00	41692.74
1258.00	41787.14
1259.00	41479.75
1260.00	41263.64
1261.00	41017.89
1262.00	41131.01
1263.00	41133.35
1264.00	40917.25
1265.00	40832.99
1266.00	40774.47
1267.00	40959.38
1268.00	41144.28
1269.00	41182.51
1270.00	41148.96
1271.00	41017.11
1272.00	41091.23
1273.00	41172.36
1274.00	41353.37
1275.00	41411.88
1276.00	41292.51
1277.00	41019.45
1278.00	40602.05
1279.00	40349.28
1280.00	39925.64
1281.00	39862.44
1282.00	39810.17
1283.00	39968.55
1284.00	39832.80
1285.00	39870.25
1286.00	40143.31
1287.00	40310.27
1288.00	40492.83
1289.00	40518.57
1290.00	40562.26
1291.00	40720.64
1292.00	40666.03
1293.00	40773.69
1294.00	40628.58
1295.00	40688.65
1296.00	40587.23
1297.00	40478.00
1298.00	40260.34
1299.00	40247.07
1300.00	40183.10
1301.00	40095.72
1302.00	39839.82
1303.00	39776.62
1304.00	39685.34
1305.00	39798.47
1306.00	39801.59
1307.00	39760.24
1308.00	39734.49
1309.00	39628.39
1310.00	39781.31
1311.00	39803.93
1312.00	39963.09
1313.00	39904.57
1314.00	39927.98
1315.00	39788.33
1316.00	39643.21
1317.00	39555.83
1318.00	39537.11
1319.00	39511.36
1320.00	39338.16
1321.00	39200.07
1322.00	39047.94
1323.00	39055.74
1324.00	39048.72
1325.00	38913.75
1326.00	38685.93
1327.00	38504.15
1328.00	38465.92
1329.00	38479.19
1330.00	38368.40
1331.00	38578.27
1332.00	38685.15
1333.00	38916.87
1334.00	38941.83
1335.00	39084.61
1336.00	39317.10
1337.00	39533.21
1338.00	39610.45
1339.00	39572.22
1340.00	39347.53
1341.00	39343.63
1342.00	39108.01
1343.00	39201.63
1344.00	39054.96
1345.00	39065.10
1346.00	39049.50
1347.00	39079.92
1348.00	39071.34
1349.00	38917.65
1350.00	38735.09
1351.00	38651.61
1352.00	38596.21
1353.00	38638.34
1354.00	38441.74
1355.00	38295.85
1356.00	38114.84
1357.00	38203.78
1358.00	38172.58
1359.00	38230.31
1360.00	38261.52
1361.00	38380.10
1362.00	38266.98
1363.00	38198.32
1364.00	37949.45
1365.00	37848.02
1366.00	37639.72
1367.00	37640.50
1368.00	37553.12
1369.00	37564.82
1370.00	37379.14
1371.00	37309.70
1372.00	37145.08
1373.00	37166.15
1374.00	37097.49
1375.00	37090.47
1376.00	37031.96
1377.00	37025.71
1378.00	37127.92
1379.00	37049.90
1380.00	36784.64
1381.00	36412.49
1382.00	36265.04
1383.00	36291.57
1384.00	36115.25
1385.00	36131.63
1386.00	36189.36
1387.00	36413.27
1388.00	36481.15
1389.00	36545.12
1390.00	36630.94
1391.00	36463.21
1392.00	36268.94
1393.00	36018.50
1394.00	35872.61
1395.00	35708.77
1396.00	35668.98
1397.00	35602.67
1398.00	35631.54
1399.00	35719.70
1400.00	35754.02
1401.00	35535.57
1402.00	35179.03
1403.00	34802.99
1404.00	34547.09
1405.00	34385.59
1406.00	34405.09
1407.00	34614.18
1408.00	34771.00
1409.00	34994.13
1410.00	34984.77
1411.00	35144.70
1412.00	35154.85
1413.00	35059.66
1414.00	34887.25
1415.00	34703.12
1416.00	34713.27
1417.00	34313.03
1418.00	33888.62
1419.00	33441.57
1420.00	33296.46
1421.00	33138.86
1422.00	33169.29
1423.00	33088.15
1424.00	33138.86
1425.00	33081.91
1426.00	33226.24
1427.00	33437.67
1428.00	33665.49
1429.00	33830.10
1430.00	34083.66
1431.00	34228.77
1432.00	34529.92
1433.00	34385.59
1434.00	34478.43
1435.00	34281.05
1436.00	34235.02
1437.00	33898.76
1438.00	33557.82
1439.00	33385.40
1440.00	33320.65
1441.00	33413.49
1442.00	33628.82
1443.00	33845.71
1444.00	33911.24
1445.00	33814.50
1446.00	33748.96
1447.00	33737.26
1448.00	33785.63
1449.00	33727.12
1450.00	33791.09
1451.00	33641.30
1452.00	33436.11
1453.00	33107.66
1454.00	32844.74
1455.00	32714.45
1456.00	32632.53
1457.00	32642.67
1458.00	32686.36
1459.00	32625.51
1460.00	32617.71
1461.00	32484.30
1462.00	32393.01
1463.00	32185.49
1464.00	31995.90
1465.00	31835.19
1466.00	31818.02
1467.00	31713.48
1468.00	31633.90
1469.00	31482.55
1470.00	31498.93
1471.00	31538.72
1472.00	31541.84
1473.00	31420.13
1474.00	31117.42
1475.00	30996.49
1476.00	30879.47
1477.00	30930.18
1478.00	30801.45
1479.00	30594.70
1480.00	30258.45
1481.00	30011.91
1482.00	30017.37
1483.00	30224.90
1484.00	30301.36
1485.00	30365.33
1486.00	30361.43
1487.00	30504.98
1488.00	30700.03
1489.00	30824.86
1490.00	30774.14
1491.00	30593.92
1492.00	30358.31
1493.00	30061.84
1494.00	29550.82
1495.00	28934.48
1496.00	28335.31
1497.00	27901.53
1498.00	27727.55
1499.00	27855.50
1500.00	28112.95
1501.00	28453.89
1502.00	28719.93
1503.00	28989.10
1504.00	28957.89
1505.00	28868.95
1506.00	28602.91
1507.00	28566.24
1508.00	28316.58
1509.00	28163.67
1510.00	27953.80
1511.00	27798.54
1512.00	27784.50
1513.00	27884.36
1514.00	28198.77
1515.00	28422.69
1516.00	28579.50
1517.00	28471.84
1518.00	28462.47
1519.00	28331.40
1520.00	28400.84
1521.00	28029.48
1522.00	27837.55
1523.00	27608.18
1524.00	27748.61
1525.00	27950.68
1526.00	28212.82
1527.00	28382.12
1528.00	28536.59
1529.00	28565.46
1530.00	28623.19
1531.00	28560.00
1532.00	28493.68
1533.00	28377.44
1534.00	28148.84
1535.00	27986.57
1536.00	27851.59
1537.00	27873.44
1538.00	27828.19
1539.00	27812.59
1540.00	27789.18
1541.00	27854.72
1542.00	28074.73
1543.00	28232.32
1544.00	28380.56
1545.00	28405.52
1546.00	28362.61
1547.00	28306.44
1548.00	28184.73
1549.00	28066.14
1550.00	27786.06
1551.00	27530.16
1552.00	27433.42
1553.00	27645.63
1554.00	27825.07
1555.00	27950.68
1556.00	27880.46
1557.00	27906.99
1558.00	27899.19
1559.00	27977.98
1560.00	28032.60
1561.00	27991.25
1562.00	28010.75
1563.00	27910.11
1564.00	27887.48
1565.00	27885.14
1566.00	27818.83
1567.00	27886.70
1568.00	27743.93
1569.00	27824.29
1570.00	27758.75
1571.00	27712.72
1572.00	27605.06
1573.00	27415.48
1574.00	27261.00
1575.00	27016.02
1576.00	26818.64
1577.00	26785.09
1578.00	26657.92
1579.00	26707.85
1580.00	26721.12
1581.00	26697.71
1582.00	26572.88
1583.00	26313.86
1584.00	26289.68
1585.00	26243.65
1586.00	26272.51
1587.00	26313.08
1588.00	26384.08
1589.00	26289.68
1590.00	26199.96
1591.00	26149.25
1592.00	26135.20
1593.00	26141.44
1594.00	26221.02
1595.00	26263.93
1596.00	26320.10
1597.00	26194.50
1598.00	26147.68
1599.00	26037.68
1600.00	25940.16
1601.00	25855.90
1602.00	25834.05
1603.00	25735.75
1604.00	25720.15
1605.00	25604.68
1606.00	25770.08
1607.00	25788.02
1608.00	25873.84
1609.00	25804.41
1610.00	25717.03
1611.00	25589.86
1612.00	25436.94
1613.00	25404.95
1614.00	25244.24
1615.00	25182.60
1616.00	25081.96
1617.00	25144.38
1618.00	25106.93
1619.00	24995.36
1620.00	24782.37
1621.00	24632.58
1622.00	24702.01
1623.00	24787.83
1624.00	24790.17
1625.00	24724.64
1626.00	24615.41
1627.00	24384.48
1628.00	24217.52
1629.00	24105.18
1630.00	24064.61
1631.00	23887.51
1632.00	23856.30
1633.00	23918.71
1634.00	23964.75
1635.00	23963.18
1636.00	23930.42
1637.00	24011.56
1638.00	23852.40
1639.00	23795.45
1640.00	23495.08
1641.00	23359.33
1642.00	22930.23
1643.00	22792.92
1644.00	22654.05
1645.00	22841.29
1646.00	23028.53
1647.00	23367.13
1648.00	23722.89
1649.00	23918.71
1650.00	24144.19
1651.00	24127.02
1652.00	24187.88
1653.00	24010.78
1654.00	23914.03
1655.00	23768.14
1656.00	23478.69
1657.00	23185.35
1658.00	22948.17
1659.00	23016.05
1660.00	23146.34
1661.00	23357.77
1662.00	23450.61
1663.00	23523.16
1664.00	23617.57
1665.00	23647.99
1666.00	23705.73
1667.00	23701.82
1668.00	23736.15
1669.00	23650.33
1670.00	23484.16
1671.00	23427.98
1672.00	23402.24
1673.00	23451.39
1674.00	23444.37
1675.00	23423.30
1676.00	23132.29
1677.00	22920.09
1678.00	22552.62
1679.00	22523.76
1680.00	22342.75
1681.00	22398.15
1682.00	22182.04
1683.00	21968.27
1684.00	21569.60
1685.00	21089.79
1686.00	20388.41
1687.00	19629.29
1688.00	18746.91
1689.00	18168.80
1690.00	17895.74
1691.00	18074.40
1692.00	18465.27
1693.00	18994.23
1694.00	19647.24
1695.00	20232.37
1696.00	20650.55
1697.00	20988.36
1698.00	21344.91
1699.00	21549.31
1700.00	21749.82
1701.00	21867.63
1702.00	22076.71
1703.00	22196.08
1704.00	22166.43
1705.00	22157.07
1706.00	22085.30
1707.00	21997.13
1708.00	21968.27
1709.00	21823.94
1710.00	21841.10
1711.00	21813.01
1712.00	21864.50
1713.00	21901.95
1714.00	21834.08
1715.00	21931.60
1716.00	21874.65
1717.00	21987.77
1718.00	21873.87
1719.00	21876.99
1720.00	21749.82
1721.00	21713.15
1722.00	21675.70
1723.00	21816.91
1724.00	21880.89
1725.00	21919.90
1726.00	21792.73
1727.00	21707.69
1728.00	21657.76
1729.00	21610.95
1730.00	21646.83
1731.00	21507.18
1732.00	21497.04
1733.00	21408.88
1734.00	21445.55
1735.00	21329.30
1736.00	21271.57
1737.00	21044.54
1738.00	20964.96
1739.00	20829.21
1740.00	20858.85
1741.00	20834.67
1742.00	20804.24
1743.00	20815.94
1744.00	20660.69
1745.00	20673.95
1746.00	20672.39
1747.00	20780.84
1748.00	20705.16
1749.00	20614.66
1750.00	20572.53
1751.00	20609.98
1752.00	20578.77
1753.00	20561.61
1754.00	20505.43
1755.00	20539.76
1756.00	20329.89
1757.00	20218.33
1758.00	20066.19
1759.00	20095.06
1760.00	19957.75
1761.00	19848.52
1762.00	19873.49
1763.00	19855.54
1764.00	19845.40
1765.00	19759.58
1766.00	19857.89
1767.00	19752.56
1768.00	19720.57
1769.00	19511.49
1770.00	19570.00
1771.00	19489.64
1772.00	19548.93
1773.00	19496.66
1774.00	19566.88
1775.00	19601.21
1776.00	19670.64
1777.00	19509.93
1778.00	19488.08
1779.00	19445.17
1780.00	19508.37
1781.00	19345.31
1782.00	19220.48
1783.00	19119.84
1784.00	19073.03
1785.00	19044.16
1786.00	18941.18
1787.00	18906.07
1788.00	18797.62
1789.00	18920.89
1790.00	18851.45
1791.00	18872.52
1792.00	18763.29
1793.00	18739.11
1794.00	18528.46
1795.00	18376.33
1796.00	18221.85
1797.00	18179.72
1798.00	18057.23
1799.00	18051.77
1800.00	17963.61
1801.00	17986.24
1802.00	17909.00
1803.00	17929.28
1804.00	17870.77
1805.00	17850.49
1806.00	17985.46
1807.00	17969.85
1808.00	18008.08
1809.00	17877.79
1810.00	17848.15
1811.00	17775.59
1812.00	17688.99
1813.00	17614.87
1814.00	17594.59
1815.00	17545.44
1816.00	17436.99
1817.00	17330.89
1818.00	17251.31
1819.00	17301.24
1820.00	17239.61
1821.00	17224.78
1822.00	17131.94
1823.00	17089.03
1824.00	17071.09
1825.00	17014.91
1826.00	17010.23
1827.00	17024.28
1828.00	17039.10
1829.00	17033.64
1830.00	16917.39
1831.00	16901.79
1832.00	16792.56
1833.00	16805.83
1834.00	16632.63
1835.00	16574.11
1836.00	16340.84
1837.00	16329.14
1838.00	16340.84
1839.00	16406.38
1840.00	16446.94
1841.00	16509.36
1842.00	16358.78
1843.00	16185.58
1844.00	15891.46
1845.00	15905.50
1846.00	15807.98
1847.00	15768.97
1848.00	15692.51
1849.00	15672.23
1850.00	15701.09
1851.00	15600.45
1852.00	15596.55
1853.00	15554.42
1854.00	15548.18
1855.00	15508.39
1856.00	15390.58
1857.00	15405.41
1858.00	15372.64
1859.00	15346.11
1860.00	15286.04
1861.00	15152.63
1862.00	15036.38
1863.00	14937.30
1864.00	14946.66
1865.00	15034.04
1866.00	14945.88
1867.00	14943.54
1868.00	14903.75
1869.00	14958.36
1870.00	14906.87
1871.00	14739.91
1872.00	14613.52
1873.00	14482.45
1874.00	14442.67
1875.00	14456.71
1876.00	14458.27
1877.00	14319.40
1878.00	14198.47
1879.00	14090.02
1880.00	14120.45
1881.00	14095.49
1882.00	13964.42
1883.00	13858.31
1884.00	13699.94
1885.00	13682.77
1886.00	13603.19
1887.00	13546.24
1888.00	13468.22
1889.00	13395.67
1890.00	13389.42
1891.00	13375.38
1892.00	13356.66
1893.00	13353.54
1894.00	13292.68
1895.00	13349.64
1896.00	13318.43
1897.00	13244.31
1898.00	13219.35
1899.00	13068.77
1900.00	13108.56
1901.00	12848.76
1902.00	12752.80
1903.00	12450.87
1904.00	12134.90
1905.00	11529.48
1906.00	10738.38
1907.00	9886.42
1908.00	9124.19
1909.00	8529.69
1910.00	8115.42
1911.00	7908.67
1912.00	7872.00
1913.00	8124.00
1914.00	8556.22
1915.00	9033.69
1916.00	9438.60
1917.00	9729.61
1918.00	9948.06
1919.00	10097.85
1920.00	10043.24
1921.00	9974.58
1922.00	9761.59
1923.00	9682.02
1924.00	9534.56
1925.00	9429.24
1926.00	9389.45
1927.00	9351.22
1928.00	9468.25
1929.00	9514.28
1930.00	9553.29
1931.00	9599.32
1932.00	9625.84
1933.00	9774.08
1934.00	9837.27
1935.00	9902.81
1936.00	9912.95
1937.00	10000.33
1938.00	10051.04
1939.00	10168.85
1940.00	10068.20
1941.00	10062.74
1942.00	10032.32
1943.00	10145.44
1944.00	10182.11
1945.00	10155.58
1946.00	10079.91
1947.00	10003.45
1948.00	10024.51
1949.00	10047.14
1950.00	10072.89
1951.00	10048.70
1952.00	9982.38
1953.00	9958.98
1954.00	9883.30
1955.00	9813.09
1956.00	9738.19
1957.00	9601.66
1958.00	9549.39
1959.00	9477.61
1960.00	9446.40
1961.00	9478.39
1962.00	9369.94
1963.00	9380.87
1964.00	9259.16
1965.00	9283.34
1966.00	9214.69
1967.00	9135.89
1968.00	9135.11
1969.00	9090.64
1970.00	9089.86
1971.00	9014.18
1972.00	8981.42
1973.00	9017.30
1974.00	9032.91
1975.00	9066.46
1976.00	9032.91
1977.00	9086.74
1978.00	9066.46
1979.00	9073.48
1980.00	8954.11
1981.00	9002.48
1982.00	9043.83
1983.00	9075.82
1984.00	9043.83
1985.00	9040.71
1986.00	8994.68
1987.00	8901.06
1988.00	8851.13
1989.00	8753.60
1990.00	8690.41
1991.00	8513.31
1992.00	8450.11
1993.00	8340.11
1994.00	8401.74
1995.00	8408.76
1996.00	8330.75
1997.00	8152.87
1998.00	8063.15
1999.00	8092.01
2000.00	8077.97
2001.00	8024.14
2002.00	7994.49
2003.00	7996.83
2004.00	8035.84
2005.00	7948.46
2006.00	7860.30
2007.00	7758.10
2008.00	7712.07
2009.00	7592.70
2010.00	7569.29
2011.00	7584.12
2012.00	7605.96
2013.00	7591.92
2014.00	7486.59
2015.00	7431.20
2016.00	7364.89
2017.00	7353.18
2018.00	7364.11
2019.00	7291.55
2020.00	7302.47
2021.00	7286.09
2022.00	7247.08
2023.00	7141.75
2024.00	7075.44
2025.00	7084.80
2026.00	7073.88
2027.00	7029.41
2028.00	7060.62
2029.00	7129.27
2030.00	7194.81
2031.00	7180.76
2032.00	7137.85
2033.00	7063.74
2034.00	7013.81
2035.00	6982.60
2036.00	6961.53
2037.00	6952.95
2038.00	6919.40
2039.00	6912.38
2040.00	6867.13
2041.00	6880.39
2042.00	6832.80
2043.00	6827.34
2044.00	6770.39
2045.00	6728.26
2046.00	6674.43
2047.00	6672.87
>>>>>End Processed Spectral Data<<<<<
