SpectraSuite Data File
++++++++++++++++++++++++++++++++++++
Date: Thu Nov 16 13:32:46 EST 2017
User: cheriyan
Dark Spectrum Present: No
Reference Spectrum Present: No
Number of Sampled Component Spectra: 1
Spectrometers: USB2+H05261
Integration Time (usec): 90000 (USB2+H05261)
Spectra Averaged: 1 (USB2+H05261)
Boxcar Smoothing: 1 (USB2+H05261)
Correct for Electrical Dark: No (USB2+H05261)
Strobe/Lamp Enabled: No (USB2+H05261)
Correct for Detector Non-linearity: No (USB2+H05261)
Correct for Stray Light: No (USB2+H05261)
Number of Pixels in Processed Spectrum: 2048
>>>>>Begin Processed Spectral Data<<<<<
0.00	339.38
1.00	339.38
2.00	334.70
3.00	303.49
4.00	284.77
5.00	263.70
6.00	262.92
7.00	231.71
8.00	228.59
9.00	234.83
10.00	259.80
11.00	268.38
12.00	250.44
13.00	246.54
14.00	237.17
15.00	259.02
16.00	259.80
17.00	293.35
18.00	297.25
19.00	309.73
20.00	288.67
21.00	309.73
22.00	320.65
23.00	769.26
24.00	2443.52
25.00	4300.34
26.00	5729.63
27.00	5841.20
28.00	5700.76
29.00	5453.45
30.00	5228.76
31.00	5200.67
32.00	5304.43
33.00	5409.76
34.00	5373.09
35.00	5206.13
36.00	4998.60
37.00	4847.25
38.00	4857.39
39.00	4972.86
40.00	5052.44
41.00	5054.00
42.00	4959.60
43.00	4912.78
44.00	4943.21
45.00	5194.43
46.00	5496.36
47.00	5798.29
48.00	5937.16
49.00	5960.56
50.00	5966.03
51.00	5978.51
52.00	6019.86
53.00	6033.90
54.00	6199.30
55.00	6375.62
56.00	6628.40
57.00	6902.24
58.00	7177.64
59.00	7453.05
60.00	7537.31
61.00	7599.72
62.00	7431.20
63.00	7195.59
64.00	6899.90
65.00	6643.22
66.00	6392.78
67.00	6191.50
68.00	6072.91
69.00	6143.13
70.00	6281.22
71.00	6491.87
72.00	6764.15
73.00	6977.14
74.00	7097.28
75.00	7002.10
76.00	6851.53
77.00	6594.85
78.00	6274.98
79.00	5965.25
80.00	5705.45
81.00	5495.58
82.00	5244.36
83.00	5021.23
84.00	4862.07
85.00	4731.00
86.00	4670.93
87.00	4553.90
88.00	4637.38
89.00	4711.50
90.00	5018.89
91.00	5309.90
92.00	5752.26
93.00	6141.57
94.00	6503.57
95.00	6694.71
96.00	6733.72
97.00	6651.80
98.00	6543.36
99.00	6411.51
100.00	6321.79
101.00	6339.73
102.00	6472.36
103.00	6678.33
104.00	6747.76
105.00	6786.77
106.00	6725.14
107.00	6796.14
108.00	6848.41
109.00	6896.00
110.00	6869.47
111.00	6767.27
112.00	6740.74
113.00	6668.97
114.00	6791.45
115.00	6951.39
116.00	7289.21
117.00	7621.56
118.00	7960.16
119.00	8291.74
120.00	8593.67
121.00	8687.29
122.00	8676.37
123.00	8636.58
124.00	8860.49
125.00	9102.34
126.00	9355.90
127.00	9596.98
128.00	9831.81
129.00	9880.96
130.00	9673.43
131.00	9313.77
132.00	8851.13
133.00	8415.01
134.00	7854.84
135.00	7234.60
136.00	6353.77
137.00	5550.97
138.00	4966.62
139.00	4792.64
140.00	4972.86
141.00	5468.27
142.00	6191.50
143.00	6987.28
144.00	7833.77
145.00	8599.91
146.00	9217.03
147.00	9761.59
148.00	10113.45
149.00	10374.03
150.00	10328.00
151.00	10087.71
152.00	9596.98
153.00	8767.65
154.00	7823.63
155.00	6902.24
156.00	6266.39
157.00	6016.74
158.00	6252.35
159.00	7027.07
160.00	8084.21
161.00	9354.34
162.00	10523.83
163.00	11526.36
164.00	12221.50
165.00	12680.24
166.00	13082.81
167.00	13385.52
168.00	13664.83
169.00	13868.45
170.00	14047.90
171.00	14119.67
172.00	14225.00
173.00	14370.11
174.00	14494.16
175.00	14497.28
176.00	14521.46
177.00	14633.03
178.00	14961.48
179.00	15248.59
180.00	15554.42
181.00	15633.22
182.00	15652.72
183.00	15668.33
184.00	15782.23
185.00	15947.63
186.00	15981.96
187.00	15956.99
188.00	15758.05
189.00	15560.66
190.00	15401.51
191.00	15457.68
192.00	15680.81
193.00	15931.25
194.00	16035.79
195.00	15939.05
196.00	15697.19
197.00	15495.13
198.00	15532.58
199.00	15644.14
200.00	15865.71
201.00	15902.38
202.00	15909.40
203.00	15701.87
204.00	15528.67
205.00	15402.29
206.00	15265.75
207.00	15279.02
208.00	15417.89
209.00	15647.26
210.00	15790.81
211.00	15688.61
212.00	15636.34
213.00	15750.24
214.00	16129.41
215.00	16538.23
216.00	16879.94
217.00	17243.51
218.00	17515.79
219.00	17830.98
220.00	17847.36
221.00	17866.09
222.00	17521.25
223.00	16962.64
224.00	16362.69
225.00	15768.19
226.00	15523.99
227.00	15654.28
228.00	16088.06
229.00	16763.70
230.00	17313.72
231.00	17926.16
232.00	18426.26
233.00	18817.13
234.00	18935.71
235.00	18949.76
236.00	19026.21
237.00	19090.97
238.00	19032.46
239.00	18849.11
240.00	18749.25
241.00	18625.20
242.00	18537.04
243.00	18523.78
244.00	18886.56
245.00	19223.60
246.00	19541.13
247.00	19592.62
248.00	19503.68
249.00	19433.47
250.00	19418.64
251.00	19478.72
252.00	19538.01
253.00	19428.01
254.00	19509.93
255.00	19817.32
256.00	20168.40
257.00	20622.46
258.00	20920.49
259.00	21163.90
260.00	21121.77
261.00	20763.67
262.00	20405.57
263.00	20032.65
264.00	19836.04
265.00	19907.04
266.00	20035.77
267.00	20296.35
268.00	20362.66
269.00	20367.34
270.00	20341.60
271.00	20389.97
272.00	20809.70
273.00	20971.98
274.00	21039.08
275.00	20678.63
276.00	20603.74
277.00	20347.06
278.00	20294.00
279.00	20394.65
280.00	20858.85
281.00	21385.47
282.00	21871.53
283.00	22157.85
284.00	22337.29
285.00	22231.97
286.00	22290.48
287.00	22071.25
288.00	21878.55
289.00	21326.96
290.00	20729.34
291.00	20107.54
292.00	19811.85
293.00	20054.49
294.00	20541.32
295.00	20954.82
296.00	21010.21
297.00	21042.20
298.00	21149.08
299.00	21435.41
300.00	21589.88
301.00	21274.69
302.00	21105.39
303.00	20844.03
304.00	20934.53
305.00	20861.98
306.00	20655.23
307.00	20636.50
308.00	20465.64
309.00	20509.33
310.00	20692.68
311.00	20967.30
312.00	21068.72
313.00	20845.59
314.00	20295.57
315.00	19742.42
316.00	19320.34
317.00	19267.29
318.00	19680.78
319.00	20078.68
320.00	20602.18
321.00	20525.72
322.00	20352.52
323.00	20017.04
324.00	19899.23
325.00	19786.89
326.00	19530.99
327.00	19284.45
328.00	18707.12
329.00	17994.04
330.00	17167.83
331.00	16371.27
332.00	15709.68
333.00	15135.46
334.00	14963.04
335.00	15196.32
336.00	15985.86
337.00	17251.31
338.00	18935.71
339.00	20744.17
340.00	22235.09
341.00	22894.34
342.00	22571.35
343.00	21886.35
344.00	21359.73
345.00	21470.51
346.00	22052.53
347.00	22684.47
348.00	23149.46
349.00	22945.83
350.00	22120.40
351.00	20964.18
352.00	20237.05
353.00	20272.94
354.00	20872.90
355.00	21557.11
356.00	22202.32
357.00	22679.79
358.00	22931.79
359.00	23146.34
360.00	23289.89
361.00	23686.22
362.00	24048.22
363.00	24495.27
364.00	24804.22
365.00	24972.74
366.00	24800.32
367.00	24588.11
368.00	24325.19
369.00	24046.66
370.00	23728.35
371.00	23386.63
372.00	23225.92
373.00	22742.99
374.00	22218.71
375.00	21685.06
376.00	21487.68
377.00	21572.72
378.00	21981.53
379.00	22649.36
380.00	23381.17
381.00	24013.12
382.00	24451.58
383.00	24741.02
384.00	24783.93
385.00	24505.41
386.00	24369.66
387.00	24467.96
388.00	24858.83
389.00	25454.11
390.00	26065.77
391.00	26603.31
392.00	26999.64
393.00	27371.00
394.00	27778.26
395.00	27916.35
396.00	27946.78
397.00	28076.29
398.00	28439.07
399.00	28826.82
400.00	28676.24
401.00	28464.82
402.00	28073.95
403.00	28403.96
404.00	28594.32
405.00	28912.64
406.00	28995.34
407.00	28989.10
408.00	28762.06
409.00	28755.82
410.00	28841.64
411.00	28998.46
412.00	28471.06
413.00	27856.28
414.00	27031.63
415.00	26611.89
416.00	26481.60
417.00	26779.63
418.00	27161.92
419.00	27466.97
420.00	27951.46
421.00	28515.53
422.00	29039.81
423.00	29278.54
424.00	29560.19
425.00	29823.11
426.00	29758.35
427.00	29451.74
428.00	29075.69
429.00	29191.16
430.00	29229.39
431.00	29405.71
432.00	29283.22
433.00	29252.80
434.00	29186.48
435.00	29472.03
436.00	29724.80
437.00	30129.72
438.00	30369.23
439.00	30703.93
440.00	31259.41
441.00	31587.09
442.00	31882.78
443.00	31679.15
444.00	31569.93
445.00	31295.30
446.00	31066.71
447.00	31040.96
448.00	30930.18
449.00	30792.09
450.00	30447.25
451.00	30133.62
452.00	29394.79
453.00	28812.77
454.00	28268.99
455.00	28381.34
456.00	28709.01
457.00	29268.40
458.00	29703.74
459.00	30036.88
460.00	30339.58
461.00	30522.93
462.00	30471.43
463.00	30398.88
464.00	30139.86
465.00	30030.63
466.00	30015.81
467.00	30357.53
468.00	30602.50
469.00	31014.44
470.00	31428.71
471.00	31775.11
472.00	31828.95
473.00	31678.37
474.00	31886.68
475.00	32057.54
476.00	32388.33
477.00	32646.57
478.00	32774.52
479.00	32869.70
480.00	32272.87
481.00	32129.31
482.00	31658.09
483.00	31477.08
484.00	31365.52
485.00	31542.62
486.00	31863.27
487.00	31871.86
488.00	31908.52
489.00	31897.60
490.00	31728.30
491.00	31572.27
492.00	31703.34
493.00	31972.50
494.00	32141.02
495.00	32237.76
496.00	32456.21
497.00	32908.71
498.00	33213.76
499.00	33291.00
500.00	33202.06
501.00	33184.90
502.00	33295.68
503.00	33295.68
504.00	33402.57
505.00	33461.86
506.00	33554.70
507.00	33666.27
508.00	33753.65
509.00	33872.23
510.00	33784.07
511.00	33520.37
512.00	33268.37
513.00	33166.17
514.00	33124.82
515.00	33140.43
516.00	32960.98
517.00	32644.23
518.00	32293.15
519.00	31928.81
520.00	32298.61
521.00	32446.85
522.00	32769.06
523.00	32955.52
524.00	33370.58
525.00	33560.94
526.00	33212.98
527.00	32681.68
528.00	32006.05
529.00	31575.39
530.00	31358.50
531.00	31427.15
532.00	31754.05
533.00	32168.32
534.00	32481.17
535.00	32790.13
536.00	32565.43
537.00	32471.81
538.00	32300.17
539.00	32588.84
540.00	32878.29
541.00	32992.97
542.00	32978.15
543.00	32897.01
544.00	32715.23
545.00	32711.33
546.00	32460.11
547.00	32319.68
548.00	31882.78
549.00	31835.19
550.00	31839.09
551.00	31956.89
552.00	32006.05
553.00	32150.38
554.00	32423.44
555.00	32828.35
556.00	33403.35
557.00	34104.73
558.00	34737.45
559.00	35076.83
560.00	35274.21
561.00	35120.52
562.00	34540.85
563.00	34037.63
564.00	33716.20
565.00	34018.13
566.00	34220.19
567.00	34430.84
568.00	34554.11
569.00	34550.21
570.00	34953.56
571.00	35445.85
572.00	35942.83
573.00	35849.99
574.00	35707.99
575.00	35503.59
576.00	35806.30
577.00	35772.75
578.00	35988.08
579.00	35740.76
580.00	35699.41
581.00	35565.22
582.00	35518.41
583.00	35459.90
584.00	35574.58
585.00	36142.55
586.00	36778.40
587.00	37246.51
588.00	37410.34
589.00	37717.73
590.00	38156.97
591.00	38593.87
592.00	38913.75
593.00	38985.52
594.00	38868.50
595.00	38582.95
596.00	38643.02
597.00	38840.41
598.00	39508.24
599.00	40208.06
600.00	40870.43
601.00	40888.38
602.00	40786.96
603.00	40728.44
604.00	41131.79
605.00	41603.80
606.00	41759.84
607.00	41765.30
608.00	41718.49
609.00	42220.14
610.00	42557.18
611.00	42653.14
612.00	42870.81
613.00	43317.85
614.00	43673.62
615.00	43679.08
616.00	43569.07
617.00	43742.27
618.00	43803.91
619.00	43920.93
620.00	44009.87
621.00	44289.18
622.00	44687.85
623.00	45117.73
624.00	45052.19
625.00	44700.33
626.00	44314.92
627.00	44439.75
628.00	44637.92
629.00	45121.63
630.00	45473.49
631.00	45480.51
632.00	44671.46
633.00	43741.49
634.00	42420.65
635.00	40731.56
636.00	38810.76
637.00	38049.31
638.00	38434.72
639.00	39654.14
640.00	41003.85
641.00	42345.75
642.00	43342.82
643.00	44095.69
644.00	44824.38
645.00	45685.70
646.00	46535.31
647.00	47246.05
648.00	47694.66
649.00	47977.08
650.00	47725.86
651.00	47454.36
652.00	47001.86
653.00	47142.29
654.00	47644.73
655.00	48568.46
656.00	49585.81
657.00	50396.42
658.00	50898.85
659.00	51250.71
660.00	51501.93
661.00	51550.30
662.00	51377.10
663.00	51132.12
664.00	51024.46
665.00	51021.34
666.00	51027.58
667.00	50862.96
668.00	50339.46
669.00	49747.31
670.00	49176.22
671.00	49306.51
672.00	49787.10
673.00	50821.61
674.00	51648.60
675.00	52363.25
676.00	52531.76
677.00	52374.17
678.00	52211.11
679.00	52148.70
680.00	52094.86
681.00	52211.89
682.00	52669.86
683.00	53457.06
684.00	54071.84
685.00	54395.61
686.00	54554.77
687.00	54591.44
688.00	54429.16
689.00	54031.27
690.00	53582.66
691.00	53400.10
692.00	53463.30
693.00	53918.14
694.00	54425.26
695.00	54875.42
696.00	54967.48
697.00	54924.57
698.00	55032.24
699.00	55116.50
700.00	55336.51
701.00	55404.38
702.00	55298.28
703.00	54905.85
704.00	54284.82
705.00	53784.73
706.00	53628.69
707.00	53811.26
708.00	54329.30
709.00	54751.37
710.00	55217.92
711.00	55544.03
712.00	55574.46
713.00	55549.49
714.00	55370.83
715.00	55172.67
716.00	54758.39
717.00	54441.64
718.00	54178.72
719.00	54256.74
720.00	54202.91
721.00	54225.53
722.00	54017.22
723.00	53880.69
724.00	53746.50
725.00	53599.83
726.00	53671.60
727.00	54148.29
728.00	54483.77
729.00	54815.35
730.00	54807.54
731.00	55022.87
732.00	55135.22
733.00	55409.06
734.00	55444.17
735.00	55249.91
736.00	54630.44
737.00	54118.65
738.00	53868.99
739.00	54011.76
740.00	54384.69
741.00	54807.54
742.00	55022.09
743.00	55184.37
744.00	55348.21
745.00	55762.48
746.00	56091.72
747.00	56532.52
748.00	56804.02
749.00	57047.44
750.00	56886.72
751.00	56736.93
752.00	56547.34
753.00	56374.92
754.00	56190.02
755.00	56030.08
756.00	56037.89
757.00	55886.53
758.00	55648.58
759.00	55315.44
760.00	55010.39
761.00	54955.78
762.00	55168.77
763.00	55576.80
764.00	55910.72
765.00	56266.48
766.00	56605.08
767.00	56995.95
768.00	57020.13
769.00	56912.47
770.00	56615.22
771.00	56359.32
772.00	56309.39
773.00	56374.92
774.00	56470.11
775.00	56452.94
776.00	56343.72
777.00	56375.70
778.00	56490.39
779.00	56892.96
780.00	57140.28
781.00	57471.85
782.00	57581.86
783.00	57577.18
784.00	57210.49
785.00	56748.63
786.00	56453.72
787.00	56247.75
788.00	56255.56
789.00	56317.19
790.00	56514.58
791.00	56544.22
792.00	56453.72
793.00	56197.82
794.00	55973.13
795.00	55732.84
796.00	55717.23
797.00	55714.89
798.00	55817.88
799.00	56044.13
800.00	56191.58
801.00	56316.41
802.00	56302.37
803.00	56404.57
804.00	56604.30
805.00	56826.65
806.00	56946.01
807.00	56765.79
808.00	56087.04
809.00	54888.68
810.00	53516.35
811.00	52032.45
812.00	51069.71
813.00	50582.10
814.00	51172.69
815.00	52339.06
816.00	53756.64
817.00	54561.01
818.00	54597.68
819.00	53999.28
820.00	53332.23
821.00	53063.07
822.00	53253.43
823.00	53812.82
824.00	54484.55
825.00	55025.99
826.00	55445.73
827.00	55814.76
828.00	56195.48
829.00	56525.50
830.00	56722.88
831.00	56721.32
832.00	56592.59
833.00	56243.85
834.00	56062.07
835.00	56184.56
836.00	56500.53
837.00	56857.85
838.00	57006.09
839.00	57095.03
840.00	57171.49
841.00	57178.51
842.00	57176.17
843.00	56994.39
844.00	56674.51
845.00	56263.36
846.00	55920.08
847.00	55892.77
848.00	56006.68
849.00	56293.00
850.00	56530.96
851.00	56908.57
852.00	57258.09
853.00	57685.62
854.00	57853.36
855.00	57954.00
856.00	57824.50
857.00	57705.13
858.00	57564.70
859.00	57343.91
860.00	57269.79
861.00	57240.92
862.00	57430.51
863.00	57547.53
864.00	57433.63
865.00	56940.55
866.00	56137.75
867.00	55244.44
868.00	54387.03
869.00	53762.89
870.00	53298.68
871.00	53479.68
872.00	53848.71
873.00	54635.91
874.00	55324.80
875.00	55972.35
876.00	56482.59
877.00	56576.99
878.00	56736.93
879.00	56843.81
880.00	57225.32
881.00	57534.27
882.00	57753.50
883.00	57876.77
884.00	57753.50
885.00	57429.72
886.00	57026.37
887.00	56714.30
888.00	56686.21
889.00	56694.80
890.00	56931.97
891.00	57222.98
892.00	57564.70
893.00	57779.24
894.00	57829.18
895.00	57775.34
896.00	57623.21
897.00	57481.22
898.00	57311.14
899.00	57112.19
900.00	56803.24
901.00	56397.55
902.00	55948.17
903.00	55487.08
904.00	55102.45
905.00	55068.12
906.00	55193.73
907.00	55611.91
908.00	55923.20
909.00	56406.91
910.00	56535.64
911.00	56492.73
912.00	56217.33
913.00	56112.00
914.00	55988.74
915.00	56138.53
916.00	56227.47
917.00	56580.11
918.00	56756.43
919.00	56947.57
920.00	57110.63
921.00	57240.92
922.00	57415.68
923.00	57393.84
924.00	57201.91
925.00	56733.81
926.00	56301.59
927.00	55858.45
928.00	55532.33
929.00	55356.79
930.00	55276.43
931.00	55496.44
932.00	55750.00
933.00	56129.17
934.00	56269.60
935.00	56231.37
936.00	56167.40
937.00	56218.89
938.00	56258.68
939.00	56174.42
940.00	56012.92
941.00	55874.05
942.00	55721.91
943.00	55547.15
944.00	55192.95
945.00	54992.45
946.00	54815.35
947.00	54766.98
948.00	54665.55
949.00	54368.30
950.00	54264.54
951.00	54090.56
952.00	54021.90
953.00	54034.39
954.00	54273.90
955.00	54706.12
956.00	54975.28
957.00	55112.59
958.00	55303.74
959.00	55383.32
960.00	55388.78
961.00	55061.10
962.00	55004.15
963.00	54930.81
964.00	55085.29
965.00	54974.50
966.00	54841.87
967.00	54944.86
968.00	55024.43
969.00	55363.03
970.00	55635.31
971.00	55955.97
972.00	56061.29
973.00	55753.90
974.00	55498.00
975.00	55309.98
976.00	55236.64
977.00	55210.90
978.00	55179.69
979.00	55340.41
980.00	55288.91
981.00	55401.26
982.00	55354.45
983.00	55308.42
984.00	55138.34
985.00	54892.58
986.00	54888.68
987.00	54824.71
988.00	55043.94
989.00	54983.08
990.00	54910.53
991.00	54482.99
992.00	54233.33
993.00	53969.63
994.00	54096.02
995.00	54307.45
996.00	54585.97
997.00	54850.45
998.00	55023.65
999.00	55179.69
1000.00	55216.36
1001.00	55171.11
1002.00	55104.79
1003.00	54956.56
1004.00	54983.86
1005.00	54978.40
1006.00	55062.66
1007.00	54918.33
1008.00	54858.26
1009.00	54606.26
1010.00	54504.06
1011.00	54401.07
1012.00	54407.31
1013.00	54348.02
1014.00	54330.86
1015.00	54333.20
1016.00	54436.96
1017.00	54603.92
1018.00	54923.79
1019.00	55170.33
1020.00	55007.27
1021.00	54699.88
1022.00	54347.24
1023.00	54081.98
1024.00	53908.78
1025.00	53898.64
1026.00	54145.17
1027.00	54243.48
1028.00	54397.95
1029.00	54341.00
1030.00	54470.51
1031.00	54563.35
1032.00	54725.63
1033.00	54880.88
1034.00	54813.01
1035.00	54856.70
1036.00	54815.35
1037.00	54796.62
1038.00	54734.21
1039.00	54520.44
1040.00	54405.75
1041.00	54209.93
1042.00	54032.83
1043.00	53896.30
1044.00	53780.83
1045.00	53732.46
1046.00	53536.63
1047.00	53268.25
1048.00	53151.23
1049.00	53065.41
1050.00	53236.26
1051.00	53176.19
1052.00	53384.50
1053.00	53435.99
1054.00	53562.38
1055.00	53386.84
1056.00	53182.43
1057.00	52892.99
1058.00	52459.21
1059.00	51875.63
1060.00	51586.19
1061.00	51489.45
1062.00	51806.98
1063.00	51814.78
1064.00	51954.43
1065.00	51877.19
1066.00	51928.69
1067.00	51902.16
1068.00	51928.69
1069.00	52133.09
1070.00	52558.29
1071.00	52976.47
1072.00	53254.21
1073.00	53280.74
1074.00	53139.52
1075.00	52838.37
1076.00	52426.44
1077.00	52117.49
1078.00	51889.68
1079.00	51897.48
1080.00	51906.06
1081.00	52107.35
1082.00	52278.21
1083.00	52534.88
1084.00	52683.90
1085.00	52837.59
1086.00	52866.46
1087.00	52792.34
1088.00	52489.63
1089.00	52205.65
1090.00	51926.35
1091.00	51791.37
1092.00	51689.95
1093.00	51767.97
1094.00	51956.77
1095.00	52067.56
1096.00	51964.57
1097.00	51704.77
1098.00	51612.71
1099.00	51381.78
1100.00	51195.32
1101.00	50734.23
1102.00	50572.74
1103.00	50395.63
1104.00	50444.79
1105.00	50442.45
1106.00	50509.54
1107.00	50705.37
1108.00	50964.38
1109.00	51256.17
1110.00	51515.19
1111.00	51522.99
1112.00	51602.57
1113.00	51412.99
1114.00	51269.43
1115.00	50884.03
1116.00	50578.20
1117.00	50344.92
1118.00	50158.46
1119.00	49858.09
1120.00	49604.53
1121.00	49540.56
1122.00	49757.45
1123.00	49852.63
1124.00	49961.08
1125.00	49904.12
1126.00	49891.64
1127.00	49717.66
1128.00	49572.55
1129.00	49317.43
1130.00	48973.37
1131.00	48510.72
1132.00	48124.54
1133.00	47783.60
1134.00	47708.70
1135.00	47677.49
1136.00	47911.55
1137.00	47961.48
1138.00	48353.91
1139.00	48736.20
1140.00	49175.44
1141.00	49443.04
1142.00	49443.04
1143.00	49472.68
1144.00	49350.98
1145.00	49299.48
1146.00	49356.44
1147.00	49352.54
1148.00	49368.14
1149.00	49186.36
1150.00	49084.15
1151.00	49027.20
1152.00	49007.70
1153.00	48929.68
1154.00	48688.60
1155.00	48261.85
1156.00	48048.86
1157.00	47825.73
1158.00	47650.97
1159.00	47425.50
1160.00	47206.26
1161.00	47054.91
1162.00	47064.27
1163.00	47019.02
1164.00	47066.61
1165.00	46910.58
1166.00	46816.96
1167.00	46981.57
1168.00	47290.52
1169.00	47518.34
1170.00	47586.99
1171.00	47409.11
1172.00	47248.39
1173.00	47200.02
1174.00	47142.29
1175.00	47174.28
1176.00	46730.36
1177.00	46439.35
1178.00	45911.95
1179.00	45632.64
1180.00	45358.80
1181.00	45450.08
1182.00	45683.36
1183.00	45889.32
1184.00	46011.81
1185.00	46107.77
1186.00	46273.95
1187.00	46597.73
1188.00	46704.61
1189.00	46798.23
1190.00	46841.92
1191.00	46922.28
1192.00	46648.44
1193.00	46386.30
1194.00	46193.59
1195.00	46483.82
1196.00	46526.73
1197.00	46661.70
1198.00	46562.62
1199.00	46696.81
1200.00	46771.71
1201.00	46808.37
1202.00	46919.16
1203.00	47142.29
1204.00	47143.85
1205.00	47116.54
1206.00	46923.06
1207.00	47122.01
1208.00	47056.47
1209.00	47004.20
1210.00	47020.58
1211.00	47081.44
1212.00	47226.55
1213.00	47139.17
1214.00	47035.41
1215.00	46994.06
1216.00	46730.36
1217.00	46696.03
1218.00	46417.50
1219.00	46506.44
1220.00	46331.68
1221.00	45931.45
1222.00	45476.61
1223.00	45084.18
1224.00	44978.86
1225.00	44717.50
1226.00	44606.71
1227.00	44514.65
1228.00	44607.49
1229.00	44700.33
1230.00	44795.51
1231.00	45013.96
1232.00	45124.75
1233.00	45254.26
1234.00	45188.72
1235.00	45014.74
1236.00	45024.11
1237.00	44944.53
1238.00	45054.53
1239.00	44786.93
1240.00	44552.88
1241.00	43931.08
1242.00	43356.08
1243.00	42265.39
1244.00	40977.32
1245.00	39658.04
1246.00	38860.69
1247.00	38413.65
1248.00	38178.82
1249.00	38130.45
1250.00	38451.88
1251.00	39166.52
1252.00	40054.37
1253.00	41079.52
1254.00	41859.70
1255.00	42312.20
1256.00	42646.90
1257.00	42926.21
1258.00	43118.91
1259.00	42824.00
1260.00	42552.50
1261.00	42453.42
1262.00	42579.03
1263.00	42482.28
1264.00	42209.22
1265.00	42198.30
1266.00	42107.02
1267.00	42376.18
1268.00	42356.67
1269.00	42474.48
1270.00	42192.06
1271.00	42198.30
1272.00	42220.92
1273.00	42430.79
1274.00	42518.17
1275.00	42488.52
1276.00	42408.95
1277.00	41988.43
1278.00	41646.71
1279.00	41310.46
1280.00	41059.24
1281.00	40941.43
1282.00	40797.88
1283.00	40772.91
1284.00	40684.75
1285.00	40942.21
1286.00	41221.52
1287.00	41542.95
1288.00	41445.43
1289.00	41701.32
1290.00	41689.62
1291.00	41851.90
1292.00	41772.32
1293.00	41940.06
1294.00	41911.19
1295.00	41865.16
1296.00	41719.27
1297.00	41674.80
1298.00	41550.75
1299.00	41473.51
1300.00	41327.62
1301.00	41271.45
1302.00	41221.51
1303.00	41171.58
1304.00	41171.58
1305.00	41000.72
1306.00	40897.74
1307.00	40773.69
1308.00	40795.54
1309.00	40907.88
1310.00	40875.90
1311.00	40982.78
1312.00	40959.38
1313.00	40992.14
1314.00	40979.66
1315.00	41006.19
1316.00	40997.60
1317.00	40768.23
1318.00	40682.41
1319.00	40370.34
1320.00	40344.59
1321.00	40125.36
1322.00	40140.97
1323.00	40055.15
1324.00	40104.30
1325.00	40011.46
1326.00	39871.81
1327.00	39764.14
1328.00	39650.24
1329.00	39651.02
1330.00	39442.71
1331.00	39617.47
1332.00	39667.40
1333.00	39872.59
1334.00	39932.66
1335.00	40006.78
1336.00	40190.12
1337.00	40412.47
1338.00	40573.97
1339.00	40554.46
1340.00	40493.61
1341.00	40493.61
1342.00	40437.44
1343.00	40561.48
1344.00	40385.94
1345.00	40294.66
1346.00	40100.40
1347.00	40062.95
1348.00	40118.34
1349.00	39928.76
1350.00	39872.59
1351.00	39790.67
1352.00	39796.13
1353.00	39755.56
1354.00	39656.48
1355.00	39597.18
1356.00	39502.78
1357.00	39471.57
1358.00	39510.58
1359.00	39474.70
1360.00	39459.87
1361.00	39366.25
1362.00	39383.41
1363.00	39225.82
1364.00	38927.01
1365.00	38771.75
1366.00	38605.58
1367.00	38536.92
1368.00	38425.36
1369.00	38415.99
1370.00	38398.05
1371.00	38327.05
1372.00	38314.57
1373.00	38231.09
1374.00	38049.31
1375.00	37868.31
1376.00	37940.86
1377.00	37980.65
1378.00	37904.20
1379.00	37689.65
1380.00	37559.36
1381.00	37421.27
1382.00	37314.38
1383.00	37273.03
1384.00	37326.86
1385.00	37388.50
1386.00	37542.97
1387.00	37612.41
1388.00	37690.43
1389.00	37535.17
1390.00	37460.27
1391.00	37398.64
1392.00	37238.70
1393.00	37053.80
1394.00	36680.88
1395.00	36509.24
1396.00	36491.29
1397.00	36595.84
1398.00	36710.52
1399.00	36843.93
1400.00	36881.38
1401.00	36747.19
1402.00	36396.11
1403.00	36105.88
1404.00	35769.63
1405.00	35480.18
1406.00	35381.10
1407.00	35633.88
1408.00	35930.34
1409.00	36086.38
1410.00	36152.69
1411.00	36142.55
1412.00	36298.59
1413.00	36223.69
1414.00	36138.65
1415.00	35924.10
1416.00	35640.90
1417.00	35364.71
1418.00	34805.33
1419.00	34396.51
1420.00	34148.42
1421.00	34141.39
1422.00	34330.98
1423.00	34172.60
1424.00	34140.61
1425.00	34182.74
1426.00	34332.54
1427.00	34599.36
1428.00	34669.58
1429.00	34801.43
1430.00	34951.22
1431.00	34955.90
1432.00	35302.30
1433.00	35241.45
1434.00	35416.99
1435.00	35243.79
1436.00	35084.63
1437.00	34905.19
1438.00	34631.35
1439.00	34522.90
1440.00	34302.11
1441.00	34521.34
1442.00	34664.11
1443.00	34826.39
1444.00	34746.03
1445.00	34701.56
1446.00	34841.21
1447.00	34869.30
1448.00	35025.34
1449.00	34923.91
1450.00	34862.28
1451.00	34730.43
1452.00	34441.76
1453.00	34263.88
1454.00	33780.95
1455.00	33695.91
1456.00	33396.32
1457.00	33393.98
1458.00	33560.94
1459.00	33686.55
1460.00	33713.08
1461.00	33446.26
1462.00	33301.14
1463.00	33102.98
1464.00	33001.55
1465.00	32866.58
1466.00	32652.03
1467.00	32471.03
1468.00	32387.55
1469.00	32634.09
1470.00	32669.20
1471.00	32605.22
1472.00	32339.96
1473.00	32175.34
1474.00	32045.05
1475.00	31933.49
1476.00	31846.11
1477.00	31716.60
1478.00	31719.72
1479.00	31547.30
1480.00	31477.08
1481.00	31226.65
1482.00	31257.07
1483.00	31126.00
1484.00	31106.50
1485.00	31051.89
1486.00	31191.54
1487.00	31214.94
1488.00	31327.29
1489.00	31478.64
1490.00	31483.33
1491.00	31488.01
1492.00	31250.05
1493.00	31104.16
1494.00	30415.26
1495.00	29802.82
1496.00	29209.11
1497.00	28907.18
1498.00	28587.30
1499.00	28618.51
1500.00	28847.88
1501.00	29150.59
1502.00	29442.38
1503.00	29580.47
1504.00	29736.51
1505.00	29655.37
1506.00	29619.48
1507.00	29494.65
1508.00	29262.94
1509.00	29090.52
1510.00	28788.59
1511.00	28832.28
1512.00	28756.60
1513.00	28939.16
1514.00	29089.74
1515.00	29290.24
1516.00	29448.62
1517.00	29456.42
1518.00	29397.91
1519.00	29331.59
1520.00	29154.49
1521.00	28880.65
1522.00	28721.49
1523.00	28587.30
1524.00	28698.87
1525.00	28768.30
1526.00	29001.58
1527.00	29201.30
1528.00	29454.08
1529.00	29528.98
1530.00	29651.47
1531.00	29545.36
1532.00	29455.64
1533.00	29127.19
1534.00	28966.47
1535.00	28821.36
1536.00	28898.59
1537.00	28715.25
1538.00	28614.61
1539.00	28581.06
1540.00	28730.86
1541.00	28868.17
1542.00	29045.27
1543.00	29185.70
1544.00	29286.34
1545.00	29179.46
1546.00	29230.95
1547.00	29208.33
1548.00	28977.39
1549.00	28703.55
1550.00	28461.69
1551.00	28383.68
1552.00	28176.93
1553.00	28268.21
1554.00	28262.75
1555.00	28492.12
1556.00	28541.27
1557.00	28758.16
1558.00	28819.80
1559.00	28900.15
1560.00	28945.41
1561.00	28888.45
1562.00	28818.24
1563.00	28739.44
1564.00	28731.64
1565.00	28666.88
1566.00	28645.04
1567.00	28765.18
1568.00	28813.56
1569.00	28757.38
1570.00	28656.74
1571.00	28471.84
1572.00	28364.17
1573.00	27989.69
1574.00	27775.92
1575.00	27782.94
1576.00	27871.10
1577.00	27846.13
1578.00	27568.39
1579.00	27417.04
1580.00	27350.72
1581.00	27442.78
1582.00	27391.29
1583.00	27326.53
1584.00	27192.34
1585.00	27218.09
1586.00	27184.54
1587.00	27061.27
1588.00	26946.59
1589.00	26822.54
1590.00	26888.07
1591.00	26882.61
1592.00	26903.68
1593.00	26981.70
1594.00	26973.11
1595.00	27003.54
1596.00	26957.51
1597.00	26989.50
1598.00	26990.28
1599.00	26854.53
1600.00	26746.86
1601.00	26635.30
1602.00	26675.87
1603.00	26486.28
1604.00	26535.43
1605.00	26395.00
1606.00	26519.83
1607.00	26473.80
1608.00	26622.03
1609.00	26654.02
1610.00	26536.21
1611.00	26306.06
1612.00	26130.52
1613.00	26103.21
1614.00	26077.47
1615.00	26072.79
1616.00	25995.55
1617.00	26031.44
1618.00	25911.29
1619.00	25738.09
1620.00	25554.75
1621.00	25532.90
1622.00	25536.81
1623.00	25451.77
1624.00	25301.19
1625.00	25304.31
1626.00	25162.32
1627.00	25081.18
1628.00	24914.22
1629.00	24861.95
1630.00	24868.19
1631.00	24859.61
1632.00	24773.01
1633.00	24801.88
1634.00	24848.69
1635.00	24895.50
1636.00	24762.87
1637.00	24615.41
1638.00	24533.50
1639.00	24536.62
1640.00	24293.20
1641.00	24020.14
1642.00	23580.12
1643.00	23566.85
1644.00	23481.81
1645.00	23647.21
1646.00	23760.34
1647.00	24147.31
1648.00	24375.12
1649.00	24569.38
1650.00	24769.89
1651.00	24844.79
1652.00	24936.07
1653.00	24829.96
1654.00	24785.49
1655.00	24474.20
1656.00	24156.67
1657.00	23892.19
1658.00	23792.33
1659.00	23798.57
1660.00	23888.29
1661.00	23914.81
1662.00	23962.40
1663.00	23972.55
1664.00	24076.31
1665.00	24170.71
1666.00	24259.65
1667.00	24351.71
1668.00	24276.82
1669.00	24240.93
1670.00	24152.77
1671.00	24193.34
1672.00	24240.93
1673.00	24230.01
1674.00	24179.29
1675.00	23972.55
1676.00	23862.54
1677.00	23556.71
1678.00	23346.06
1679.00	23097.19
1680.00	23090.16
1681.00	22912.28
1682.00	22810.08
1683.00	22488.65
1684.00	22188.28
1685.00	21744.36
1686.00	21145.96
1687.00	20414.93
1688.00	19523.97
1689.00	18824.93
1690.00	18461.37
1691.00	18515.20
1692.00	18960.68
1693.00	19582.48
1694.00	20282.30
1695.00	20856.51
1696.00	21356.61
1697.00	21717.83
1698.00	22068.91
1699.00	22369.28
1700.00	22522.19
1701.00	22494.89
1702.00	22633.76
1703.00	22787.46
1704.00	23046.47
1705.00	22912.28
1706.00	22753.91
1707.00	22613.48
1708.00	22613.48
1709.00	22583.05
1710.00	22421.55
1711.00	22399.71
1712.00	22393.47
1713.00	22485.53
1714.00	22410.63
1715.00	22511.27
1716.00	22608.01
1717.00	22637.66
1718.00	22618.94
1719.00	22548.72
1720.00	22544.82
1721.00	22388.00
1722.00	22326.37
1723.00	22175.80
1724.00	22183.60
1725.00	22179.70
1726.00	22283.46
1727.00	22395.81
1728.00	22359.92
1729.00	22356.02
1730.00	22345.87
1731.00	22283.46
1732.00	22140.69
1733.00	22076.71
1734.00	22063.45
1735.00	22111.04
1736.00	21862.94
1737.00	21709.25
1738.00	21548.53
1739.00	21500.94
1740.00	21529.03
1741.00	21483.00
1742.00	21553.99
1743.00	21440.87
1744.00	21440.87
1745.00	21281.71
1746.00	21292.63
1747.00	21199.79
1748.00	21213.84
1749.00	21171.71
1750.00	21231.00
1751.00	21270.01
1752.00	21202.13
1753.00	21043.76
1754.00	21022.69
1755.00	20970.42
1756.00	20947.01
1757.00	20853.39
1758.00	20758.21
1759.00	20729.34
1760.00	20490.61
1761.00	20438.34
1762.00	20384.51
1763.00	20469.55
1764.00	20521.82
1765.00	20490.61
1766.00	20549.90
1767.00	20489.83
1768.00	20474.23
1769.00	20304.15
1770.00	20247.19
1771.00	20199.60
1772.00	20139.53
1773.00	20127.05
1774.00	20098.18
1775.00	20183.22
1776.00	20244.85
1777.00	20212.87
1778.00	20177.76
1779.00	20031.08
1780.00	20041.23
1781.00	19931.22
1782.00	19901.58
1783.00	19758.80
1784.00	19745.54
1785.00	19789.23
1786.00	19706.53
1787.00	19665.96
1788.00	19488.08
1789.00	19489.64
1790.00	19364.81
1791.00	19357.79
1792.00	19303.18
1793.00	19269.63
1794.00	19097.99
1795.00	18902.17
1796.00	18861.60
1797.00	18801.52
1798.00	18819.47
1799.00	18715.70
1800.00	18633.78
1801.00	18611.16
1802.00	18609.60
1803.00	18640.03
1804.00	18690.74
1805.00	18722.73
1806.00	18760.17
1807.00	18710.24
1808.00	18671.23
1809.00	18654.85
1810.00	18589.31
1811.00	18422.36
1812.00	18243.70
1813.00	18100.14
1814.00	17992.48
1815.00	17913.68
1816.00	17896.52
1817.00	17956.59
1818.00	17942.55
1819.00	17788.07
1820.00	17650.76
1821.00	17575.86
1822.00	17609.41
1823.00	17532.17
1824.00	17560.26
1825.00	17461.18
1826.00	17518.91
1827.00	17537.63
1828.00	17625.01
1829.00	17582.10
1830.00	17252.87
1831.00	17262.23
1832.00	17261.45
1833.00	17474.44
1834.00	17298.12
1835.00	17132.72
1836.00	16838.59
1837.00	16872.14
1838.00	16901.01
1839.00	17024.28
1840.00	16904.91
1841.00	16908.03
1842.00	16974.35
1843.00	16890.87
1844.00	16720.79
1845.00	16436.02
1846.00	16279.21
1847.00	16224.59
1848.00	16151.26
1849.00	16196.51
1850.00	16163.74
1851.00	16144.24
1852.00	16121.61
1853.00	15980.40
1854.00	15925.00
1855.00	15803.30
1856.00	15857.13
1857.00	15870.39
1858.00	15900.82
1859.00	15858.69
1860.00	15776.77
1861.00	15636.34
1862.00	15449.88
1863.00	15483.42
1864.00	15310.22
1865.00	15410.87
1866.00	15284.48
1867.00	15400.72
1868.00	15339.09
1869.00	15409.31
1870.00	15410.87
1871.00	15432.71
1872.00	15282.14
1873.00	15262.63
1874.00	15108.94
1875.00	15056.67
1876.00	14953.68
1877.00	14883.47
1878.00	14846.80
1879.00	14719.63
1880.00	14615.09
1881.00	14515.22
1882.00	14560.47
1883.00	14516.00
1884.00	14498.84
1885.00	14273.37
1886.00	14176.62
1887.00	14024.49
1888.00	13914.48
1889.00	13916.05
1890.00	13956.61
1891.00	13980.80
1892.00	13891.08
1893.00	13877.82
1894.00	13906.68
1895.00	13910.58
1896.00	13849.73
1897.00	13783.41
1898.00	13636.74
1899.00	13519.71
1900.00	13406.59
1901.00	13398.01
1902.00	13337.93
1903.00	13152.25
1904.00	12730.17
1905.00	12096.67
1906.00	11233.01
1907.00	10311.62
1908.00	9406.61
1909.00	8828.50
1910.00	8374.44
1911.00	8195.00
1912.00	8145.84
1913.00	8415.79
1914.00	8840.98
1915.00	9389.45
1916.00	9831.03
1917.00	10180.55
1918.00	10320.20
1919.00	10373.25
1920.00	10298.36
1921.00	10220.34
1922.00	10156.36
1923.00	9967.56
1924.00	9870.82
1925.00	9772.52
1926.00	9795.92
1927.00	9787.34
1928.00	9826.35
1929.00	9818.55
1930.00	9877.84
1931.00	9962.88
1932.00	10074.45
1933.00	10150.12
1934.00	10168.85
1935.00	10260.13
1936.00	10335.03
1937.00	10413.82
1938.00	10414.60
1939.00	10455.17
1940.00	10468.44
1941.00	10506.66
1942.00	10507.44
1943.00	10484.04
1944.00	10473.90
1945.00	10424.75
1946.00	10414.60
1947.00	10404.46
1948.00	10376.38
1949.00	10430.99
1950.00	10274.95
1951.00	10230.48
1952.00	10119.70
1953.00	10190.69
1954.00	10129.84
1955.00	10098.63
1956.00	10072.11
1957.00	10005.01
1958.00	9905.93
1959.00	9742.09
1960.00	9712.44
1961.00	9653.15
1962.00	9651.59
1963.00	9528.32
1964.00	9437.04
1965.00	9445.62
1966.00	9478.39
1967.00	9535.34
1968.00	9507.26
1969.00	9490.87
1970.00	9393.35
1971.00	9402.71
1972.00	9386.33
1973.00	9329.38
1974.00	9314.55
1975.00	9320.01
1976.00	9425.34
1977.00	9312.21
1978.00	9300.51
1979.00	9362.92
1980.00	9484.63
1981.00	9525.98
1982.00	9542.36
1983.00	9507.26
1984.00	9491.65
1985.00	9447.18
1986.00	9423.00
1987.00	9366.04
1988.00	9186.60
1989.00	9084.40
1990.00	8943.19
1991.00	8883.89
1992.00	8781.69
1993.00	8746.58
1994.00	8755.94
1995.00	8730.98
1996.00	8640.48
1997.00	8487.56
1998.00	8378.34
1999.00	8299.54
2000.00	8273.79
2001.00	8218.40
2002.00	8269.89
2003.00	8285.50
2004.00	8277.69
2005.00	8212.94
2006.00	8099.81
2007.00	8034.28
2008.00	7963.28
2009.00	7944.56
2010.00	7978.89
2011.00	7945.34
2012.00	7946.12
2013.00	7856.40
2014.00	7815.83
2015.00	7784.62
2016.00	7755.76
2017.00	7772.92
2018.00	7691.78
2019.00	7604.40
2020.00	7492.83
2021.00	7470.99
2022.00	7449.14
2023.00	7417.16
2024.00	7351.62
2025.00	7368.01
2026.00	7459.29
2027.00	7419.50
2028.00	7337.58
2029.00	7278.29
2030.00	7363.33
2031.00	7446.02
2032.00	7412.48
2033.00	7390.63
2034.00	7343.82
2035.00	7274.38
2036.00	7180.76
2037.00	7158.14
2038.00	7197.15
2039.00	7212.75
2040.00	7176.86
2041.00	7144.88
2042.00	7098.84
2043.00	7116.79
2044.00	7062.96
2045.00	7112.89
2046.00	7036.43
2047.00	6932.67
>>>>>End Processed Spectral Data<<<<<
