SpectraSuite Data File
++++++++++++++++++++++++++++++++++++
Date: Thu Nov 16 13:32:49 EST 2017
User: cheriyan
Dark Spectrum Present: No
Reference Spectrum Present: No
Number of Sampled Component Spectra: 1
Spectrometers: USB2+H05261
Integration Time (usec): 90000 (USB2+H05261)
Spectra Averaged: 1 (USB2+H05261)
Boxcar Smoothing: 1 (USB2+H05261)
Correct for Electrical Dark: No (USB2+H05261)
Strobe/Lamp Enabled: No (USB2+H05261)
Correct for Detector Non-linearity: No (USB2+H05261)
Correct for Stray Light: No (USB2+H05261)
Number of Pixels in Processed Spectrum: 2048
>>>>>Begin Processed Spectral Data<<<<<
0.00	355.76
1.00	355.76
2.00	332.36
3.00	290.23
4.00	275.40
5.00	263.70
6.00	278.52
7.00	266.04
8.00	278.52
9.00	263.70
10.00	255.90
11.00	250.44
12.00	260.58
13.00	256.68
14.00	256.68
15.00	262.14
16.00	252.00
17.00	254.34
18.00	274.62
19.00	299.59
20.00	305.05
21.00	298.81
22.00	300.37
23.00	752.09
24.00	2420.11
25.00	4268.36
26.00	5660.98
27.00	5756.16
28.00	5593.10
29.00	5391.03
30.00	5219.39
31.00	5207.69
32.00	5249.04
33.00	5352.81
34.00	5294.29
35.00	5193.65
36.00	4894.06
37.00	4767.67
38.00	4657.67
39.00	4797.32
40.00	4882.36
41.00	4921.37
42.00	4878.46
43.00	4801.22
44.00	4907.32
45.00	5132.79
46.00	5459.69
47.00	5732.75
48.00	5845.88
49.00	5845.88
50.00	5774.10
51.00	5735.09
52.00	5790.49
53.00	5845.10
54.00	5996.45
55.00	6211.78
56.00	6511.37
57.00	6807.06
58.00	6991.18
59.00	7254.88
60.00	7369.57
61.00	7500.64
62.00	7341.48
63.00	7204.17
64.00	6891.32
65.00	6573.00
66.00	6277.32
67.00	6094.76
68.00	6047.16
69.00	6040.14
70.00	6207.88
71.00	6467.68
72.00	6728.26
73.00	6906.92
74.00	7023.17
75.00	7048.91
76.00	6879.61
77.00	6580.81
78.00	6250.79
79.00	5949.64
80.00	5688.28
81.00	5394.15
82.00	5178.83
83.00	4953.35
84.00	4884.70
85.00	4712.28
86.00	4635.04
87.00	4503.97
88.00	4575.75
89.00	4683.41
90.00	4921.37
91.00	5295.07
92.00	5709.35
93.00	6166.53
94.00	6445.84
95.00	6679.89
96.00	6734.50
97.00	6659.60
98.00	6423.21
99.00	6259.37
100.00	6174.33
101.00	6277.32
102.00	6444.28
103.00	6639.32
104.00	6730.60
105.00	6704.85
106.00	6616.69
107.00	6633.08
108.00	6679.11
109.00	6741.52
110.00	6751.67
111.00	6733.72
112.00	6758.69
113.00	6721.24
114.00	6790.67
115.00	6906.92
116.00	7247.86
117.00	7612.98
118.00	7953.14
119.00	8264.43
120.00	8501.61
121.00	8668.56
122.00	8642.82
123.00	8640.48
124.00	8732.54
125.00	8960.35
126.00	9173.34
127.00	9443.28
128.00	9550.17
129.00	9643.79
130.00	9479.95
131.00	9284.91
132.00	8844.10
133.00	8368.98
134.00	7744.05
135.00	7076.22
136.00	6272.64
137.00	5533.81
138.00	4965.84
139.00	4742.71
140.00	4869.87
141.00	5341.88
142.00	6115.04
143.00	6999.76
144.00	7822.85
145.00	8510.97
146.00	9021.20
147.00	9527.54
148.00	9895.00
149.00	10221.12
150.00	10171.97
151.00	9940.26
152.00	9405.05
153.00	8669.34
154.00	7796.32
155.00	6852.31
156.00	6193.06
157.00	5905.17
158.00	6192.28
159.00	6928.77
160.00	7977.33
161.00	9207.67
162.00	10388.86
163.00	11307.91
164.00	11866.52
165.00	12368.95
166.00	12739.54
167.00	13129.63
168.00	13362.12
169.00	13629.72
170.00	13769.37
171.00	13878.60
172.00	13994.84
173.00	14137.62
174.00	14241.38
175.00	14315.50
176.00	14430.18
177.00	14714.17
178.00	14993.47
179.00	15240.79
180.00	15268.09
181.00	15334.41
182.00	15446.76
183.00	15515.41
184.00	15653.50
185.00	15629.32
186.00	15700.31
187.00	15619.96
188.00	15433.49
189.00	15196.32
190.00	15005.95
191.00	15262.63
192.00	15483.42
193.00	15784.57
194.00	15784.57
195.00	15736.20
196.00	15572.36
197.00	15340.65
198.00	15382.00
199.00	15389.80
200.00	15597.33
201.00	15639.46
202.00	15639.46
203.00	15546.62
204.00	15378.10
205.00	15209.58
206.00	15055.11
207.00	15105.82
208.00	15232.99
209.00	15463.14
210.00	15594.21
211.00	15555.20
212.00	15509.95
213.00	15639.46
214.00	15947.63
215.00	16247.22
216.00	16563.19
217.00	16962.64
218.00	17202.16
219.00	17373.80
220.00	17420.61
221.00	17430.75
222.00	17137.40
223.00	16572.55
224.00	15935.15
225.00	15384.34
226.00	15232.21
227.00	15413.21
228.00	15825.92
229.00	16365.03
230.00	17006.33
231.00	17671.04
232.00	18202.35
233.00	18523.00
234.00	18693.86
235.00	18791.38
236.00	18913.09
237.00	18899.05
238.00	18859.26
239.00	18688.40
240.00	18549.53
241.00	18392.71
242.00	18387.25
243.00	18494.13
244.00	18891.24
245.00	19122.96
246.00	19340.63
247.00	19244.66
248.00	19137.00
249.00	19094.09
250.00	19165.87
251.00	19351.55
252.00	19379.64
253.00	19307.08
254.00	19327.36
255.00	19566.88
256.00	19947.61
257.00	20382.95
258.00	20758.21
259.00	20884.60
260.00	20743.39
261.00	20428.98
262.00	20066.97
263.00	19751.78
264.00	19507.59
265.00	19471.70
266.00	19680.00
267.00	19866.47
268.00	20032.65
269.00	20019.38
270.00	20098.18
271.00	20173.86
272.00	20471.89
273.00	20698.14
274.00	20727.00
275.00	20577.99
276.00	20246.41
277.00	20000.66
278.00	19843.84
279.00	20017.04
280.00	20533.52
281.00	21088.23
282.00	21676.48
283.00	22007.28
284.00	22117.28
285.00	21988.55
286.00	21855.92
287.00	21593.78
288.00	21404.98
289.00	21020.35
290.00	20527.28
291.00	19915.62
292.00	19637.87
293.00	19942.92
294.00	20362.66
295.00	20666.93
296.00	20767.57
297.00	20737.15
298.00	20823.75
299.00	20755.09
300.00	20910.35
301.00	20716.08
302.00	20576.43
303.00	20505.43
304.00	20522.60
305.00	20663.81
306.00	20421.95
307.00	20380.60
308.00	20138.75
309.00	20103.64
310.00	20257.34
311.00	20557.71
312.00	20691.12
313.00	20421.17
314.00	19821.22
315.00	19306.30
316.00	19037.92
317.00	19086.29
318.00	19403.04
319.00	19707.31
320.00	20113.78
321.00	20134.07
322.00	20095.84
323.00	19694.05
324.00	19645.68
325.00	19416.30
326.00	19309.42
327.00	18973.94
328.00	18460.59
329.00	17875.45
330.00	17006.33
331.00	16111.47
332.00	15371.86
333.00	14835.10
334.00	14717.29
335.00	14918.57
336.00	15598.11
337.00	16769.16
338.00	18505.06
339.00	20372.80
340.00	21960.47
341.00	22537.02
342.00	22289.70
343.00	21577.40
344.00	20997.73
345.00	21026.59
346.00	21553.21
347.00	22221.05
348.00	22721.92
349.00	22530.00
350.00	21781.03
351.00	20730.90
352.00	19942.14
353.00	19824.34
354.00	20203.50
355.00	20994.61
356.00	21724.07
357.00	22309.21
358.00	22642.34
359.00	22928.67
360.00	23058.18
361.00	23433.44
362.00	23694.02
363.00	24194.90
364.00	24492.93
365.00	24499.17
366.00	24409.45
367.00	24160.57
368.00	24065.39
369.00	23663.60
370.00	23481.03
371.00	23131.51
372.00	22922.43
373.00	22363.82
374.00	21862.16
375.00	21398.74
376.00	21214.62
377.00	21405.76
378.00	21848.12
379.00	22451.20
380.00	23123.71
381.00	23792.33
382.00	24190.22
383.00	24369.66
384.00	24128.58
385.00	23946.02
386.00	23805.59
387.00	24013.90
388.00	24570.16
389.00	25242.68
390.00	25829.37
391.00	26114.14
392.00	26363.79
393.00	26784.31
394.00	27246.96
395.00	27524.70
396.00	27727.55
397.00	27900.75
398.00	28268.21
399.00	28343.11
400.00	28161.33
401.00	27896.07
402.00	27646.41
403.00	27837.55
404.00	28211.26
405.00	28599.79
406.00	28737.88
407.00	28450.77
408.00	28162.11
409.00	28180.83
410.00	28482.76
411.00	28745.68
412.00	28322.04
413.00	27573.85
414.00	26820.98
415.00	26253.79
416.00	26028.32
417.00	26067.33
418.00	26608.77
419.00	27072.20
420.00	27648.75
421.00	28016.21
422.00	28397.72
423.00	28749.58
424.00	29122.51
425.00	29383.09
426.00	29309.75
427.00	28865.05
428.00	28741.00
429.00	28641.14
430.00	28815.90
431.00	28619.29
432.00	28533.47
433.00	28546.73
434.00	28780.79
435.00	29067.11
436.00	29144.35
437.00	29424.43
438.00	29764.59
439.00	30378.59
440.00	30904.43
441.00	31250.83
442.00	31461.48
443.00	31322.61
444.00	31185.30
445.00	30846.70
446.00	30586.90
447.00	30463.63
448.00	30474.56
449.00	30342.70
450.00	29976.02
451.00	29500.11
452.00	28925.12
453.00	28418.78
454.00	28084.09
455.00	28136.36
456.00	28367.29
457.00	28746.46
458.00	29099.88
459.00	29486.85
460.00	29901.90
461.00	30136.74
462.00	30304.48
463.00	30021.27
464.00	29922.19
465.00	29648.35
466.00	29672.53
467.00	29971.34
468.00	30224.12
469.00	30687.54
470.00	31010.54
471.00	31439.64
472.00	31413.11
473.00	31200.90
474.00	31317.15
475.00	31523.12
476.00	31949.09
477.00	32242.44
478.00	32425.78
479.00	32359.47
480.00	31882.78
481.00	31740.00
482.00	31211.82
483.00	30826.42
484.00	30820.17
485.00	31090.12
486.00	31455.24
487.00	31313.25
488.00	31265.66
489.00	31297.64
490.00	31182.96
491.00	31174.38
492.00	31184.52
493.00	31417.01
494.00	31502.05
495.00	31650.28
496.00	31919.45
497.00	32274.43
498.00	32507.70
499.00	32585.72
500.00	32587.28
501.00	32645.01
502.00	32846.30
503.00	32872.82
504.00	33106.88
505.00	33122.48
506.00	33461.86
507.00	33599.17
508.00	33630.38
509.00	33436.89
510.00	33193.48
511.00	32949.28
512.00	32875.16
513.00	32851.76
514.00	32848.64
515.00	32859.56
516.00	32605.22
517.00	32204.99
518.00	31811.78
519.00	31577.73
520.00	31882.78
521.00	31942.85
522.00	32080.16
523.00	32381.31
524.00	32779.20
525.00	33080.35
526.00	32639.55
527.00	32147.26
528.00	31599.57
529.00	31197.78
530.00	30998.84
531.00	31128.34
532.00	31496.59
533.00	31839.09
534.00	32013.07
535.00	32187.05
536.00	32096.55
537.00	31940.51
538.00	31889.80
539.00	32024.77
540.00	32023.21
541.00	32158.18
542.00	32265.07
543.00	32471.81
544.00	32350.10
545.00	32293.15
546.00	32034.13
547.00	31866.39
548.00	31562.90
549.00	31499.71
550.00	31361.62
551.00	31539.50
552.00	31709.58
553.00	31852.35
554.00	32041.15
555.00	32464.01
556.00	33029.64
557.00	33540.66
558.00	34062.60
559.00	34551.77
560.00	34757.74
561.00	34530.70
562.00	34068.84
563.00	33602.29
564.00	33297.24
565.00	33290.22
566.00	33543.00
567.00	33763.01
568.00	33855.85
569.00	33999.40
570.00	34497.94
571.00	35061.22
572.00	35349.11
573.00	35369.40
574.00	35241.45
575.00	35213.36
576.00	35239.89
577.00	35053.42
578.00	35071.37
579.00	34926.25
580.00	35014.41
581.00	35008.95
582.00	35045.62
583.00	35101.79
584.00	35232.08
585.00	35578.48
586.00	36259.58
587.00	36718.32
588.00	37054.58
589.00	37362.75
590.00	37631.13
591.00	38143.71
592.00	38327.05
593.00	38706.22
594.00	38590.75
595.00	38452.66
596.00	38333.29
597.00	38614.94
598.00	39197.73
599.00	39578.46
600.00	39984.15
601.00	39987.27
602.00	40105.08
603.00	40162.81
604.00	40512.33
605.00	41029.59
606.00	41034.27
607.00	41164.56
608.00	41292.51
609.00	41893.25
610.00	42305.18
611.00	42312.98
612.00	42444.84
613.00	42660.16
614.00	43048.69
615.00	43179.76
616.00	43044.01
617.00	43047.13
618.00	43266.36
619.00	43434.10
620.00	43608.08
621.00	43700.14
622.00	43956.04
623.00	44240.03
624.00	43996.61
625.00	43739.15
626.00	43597.16
627.00	43779.72
628.00	44172.15
629.00	44455.36
630.00	44878.21
631.00	44643.38
632.00	43874.90
633.00	42974.58
634.00	41761.40
635.00	40224.45
636.00	38557.21
637.00	37796.53
638.00	38066.47
639.00	39070.56
640.00	40341.47
641.00	41502.38
642.00	42558.74
643.00	43290.55
644.00	44148.74
645.00	44769.77
646.00	45780.88
647.00	46544.67
648.00	47114.20
649.00	47296.77
650.00	47139.17
651.00	46990.94
652.00	46497.08
653.00	46522.83
654.00	46880.93
655.00	47949.77
656.00	49019.40
657.00	49831.57
658.00	50298.89
659.00	50599.26
660.00	50891.05
661.00	50824.73
662.00	50723.31
663.00	50428.40
664.00	50349.60
665.00	50242.72
666.00	50379.25
667.00	50298.89
668.00	49933.77
669.00	49258.13
670.00	48790.81
671.00	48668.32
672.00	49252.67
673.00	50117.11
674.00	51123.54
675.00	51730.52
676.00	51974.72
677.00	51960.67
678.00	51567.46
679.00	51400.50
680.00	51336.53
681.00	51823.36
682.00	52362.46
683.00	53003.77
684.00	53456.28
685.00	53882.25
686.00	54100.70
687.00	54204.47
688.00	54009.42
689.00	53719.98
690.00	53288.54
691.00	53056.04
692.00	52988.17
693.00	53337.69
694.00	53791.75
695.00	54149.07
696.00	54326.17
697.00	54381.57
698.00	54545.40
699.00	54657.75
700.00	54820.03
701.00	54881.66
702.00	54660.09
703.00	54325.39
704.00	53805.80
705.00	53375.92
706.00	53230.02
707.00	53441.45
708.00	54023.47
709.00	54445.54
710.00	54802.08
711.00	55008.05
712.00	55246.79
713.00	55185.93
714.00	54965.14
715.00	54576.61
716.00	54209.93
717.00	54021.90
718.00	53751.96
719.00	53684.09
720.00	53607.63
721.00	53628.69
722.00	53495.28
723.00	53377.48
724.00	53271.37
725.00	53190.23
726.00	53230.80
727.00	53587.35
728.00	53963.39
729.00	54167.02
730.00	54179.50
731.00	54444.76
732.00	54731.87
733.00	54921.45
734.00	54887.90
735.00	54649.17
736.00	54138.15
737.00	53634.94
738.00	53276.83
739.00	53408.68
740.00	53712.17
741.00	54352.70
742.00	54697.54
743.00	54921.45
744.00	55050.18
745.00	55356.01
746.00	55698.51
747.00	56039.45
748.00	56361.66
749.00	56617.56
750.00	56541.88
751.00	56246.19
752.00	55964.55
753.00	55773.41
754.00	55645.46
755.00	55545.59
756.00	55502.68
757.00	55396.58
758.00	55278.77
759.00	55015.85
760.00	54688.18
761.00	54514.98
762.00	54710.80
763.00	55184.37
764.00	55526.87
765.00	55908.38
766.00	56318.75
767.00	56717.42
768.00	56711.96
769.00	56525.50
770.00	56246.97
771.00	56044.91
772.00	56015.26
773.00	56008.24
774.00	56038.67
775.00	56030.86
776.00	55978.59
777.00	56053.49
778.00	56143.99
779.00	56495.85
780.00	56672.95
781.00	56977.22
782.00	57120.77
783.00	57161.34
784.00	56854.73
785.00	56401.45
786.00	56036.33
787.00	55796.03
788.00	55742.98
789.00	55879.51
790.00	56016.04
791.00	56068.31
792.00	55950.51
793.00	55745.32
794.00	55575.24
795.00	55222.60
796.00	55217.14
797.00	55104.01
798.00	55390.34
799.00	55398.14
800.00	55658.72
801.00	55727.38
802.00	55939.58
803.00	56042.57
804.00	56188.46
805.00	56463.08
806.00	56502.09
807.00	56327.33
808.00	55615.81
809.00	54540.72
810.00	53171.51
811.00	51655.62
812.00	50474.43
813.00	49986.04
814.00	50521.24
815.00	51868.61
816.00	53328.33
817.00	54255.18
818.00	54283.26
819.00	53715.29
820.00	52937.46
821.00	52630.85
822.00	52850.08
823.00	53494.50
824.00	54098.36
825.00	54581.29
826.00	54859.04
827.00	55200.75
828.00	55574.46
829.00	56005.90
830.00	56245.41
831.00	56211.09
832.00	56067.53
833.00	55787.45
834.00	55714.89
835.00	55766.38
836.00	56045.69
837.00	56267.26
838.00	56405.35
839.00	56545.78
840.00	56660.47
841.00	56810.26
842.00	56761.89
843.00	56620.68
844.00	56132.29
845.00	55685.25
846.00	55317.78
847.00	55233.52
848.00	55391.12
849.00	55657.16
850.00	56172.08
851.00	56613.66
852.00	56956.16
853.00	57138.72
854.00	57217.52
855.00	57379.79
856.00	57386.03
857.00	57350.15
858.00	57217.52
859.00	56988.14
860.00	56889.84
861.00	56797.78
862.00	57002.19
863.00	57036.51
864.00	56907.79
865.00	56357.76
866.00	55624.39
867.00	54725.63
868.00	53712.95
869.00	53006.89
870.00	52644.11
871.00	52968.66
872.00	53456.28
873.00	54215.39
874.00	54926.91
875.00	55538.57
876.00	55888.87
877.00	56012.14
878.00	56154.13
879.00	56374.14
880.00	56750.19
881.00	57093.47
882.00	57313.48
883.00	57419.58
884.00	57320.50
885.00	57080.99
886.00	56742.39
887.00	56449.04
888.00	56288.32
889.00	56346.06
890.00	56502.87
891.00	56783.74
892.00	57031.05
893.00	57246.38
894.00	57372.77
895.00	57325.18
896.00	57167.58
897.00	57059.92
898.00	56907.79
899.00	56709.62
900.00	56446.70
901.00	56082.36
902.00	55581.48
903.00	54926.91
904.00	54528.24
905.00	54537.60
906.00	54808.32
907.00	55217.92
908.00	55544.03
909.00	55918.52
910.00	56055.05
911.00	56108.10
912.00	55854.54
913.00	55679.78
914.00	55536.23
915.00	55653.26
916.00	55750.78
917.00	55987.95
918.00	56229.03
919.00	56408.47
920.00	56620.68
921.00	56839.91
922.00	57012.33
923.00	57041.20
924.00	56735.37
925.00	56406.13
926.00	55939.58
927.00	55426.23
928.00	54958.90
929.00	54650.73
930.00	54704.56
931.00	54979.18
932.00	55380.20
933.00	55609.57
934.00	55843.62
935.00	55867.03
936.00	55991.08
937.00	55998.88
938.00	55906.82
939.00	55853.76
940.00	55595.52
941.00	55388.78
942.00	55138.34
943.00	54854.36
944.00	54616.40
945.00	54415.90
946.00	54475.19
947.00	54248.16
948.00	54229.43
949.00	53875.23
950.00	53833.88
951.00	53496.84
952.00	53377.48
953.00	53418.83
954.00	53687.21
955.00	54089.00
956.00	54373.77
957.00	54568.81
958.00	54780.24
959.00	54955.78
960.00	54831.73
961.00	54607.82
962.00	54562.57
963.00	54617.18
964.00	54579.73
965.00	54351.92
966.00	54349.58
967.00	54452.56
968.00	54730.31
969.00	54921.45
970.00	55214.02
971.00	55447.29
972.00	55562.76
973.00	55431.69
974.00	55124.30
975.00	55001.81
976.00	54887.12
977.00	54881.66
978.00	54744.35
979.00	54787.26
980.00	54789.60
981.00	55027.56
982.00	55016.63
983.00	54881.66
984.00	54611.72
985.00	54475.97
986.00	54497.81
987.00	54452.56
988.00	54594.56
989.00	54474.41
990.00	54475.97
991.00	54068.72
992.00	53758.20
993.00	53428.19
994.00	53554.58
995.00	53871.33
996.00	54216.95
997.00	54456.46
998.00	54641.37
999.00	54757.61
1000.00	54609.38
1001.00	54647.61
1002.00	54550.87
1003.00	54587.53
1004.00	54613.28
1005.00	54568.03
1006.00	54575.83
1007.00	54414.33
1008.00	54298.09
1009.00	54149.07
1010.00	54015.66
1011.00	53822.96
1012.00	53842.46
1013.00	53782.39
1014.00	53931.40
1015.00	53950.13
1016.00	54003.18
1017.00	54173.26
1018.00	54362.84
1019.00	54536.82
1020.00	54425.26
1021.00	54209.15
1022.00	53878.35
1023.00	53487.48
1024.00	53269.81
1025.00	53335.35
1026.00	53769.91
1027.00	53965.73
1028.00	54142.05
1029.00	53972.75
1030.00	53993.04
1031.00	54022.68
1032.00	54100.70
1033.00	54236.45
1034.00	54176.38
1035.00	54187.30
1036.00	54223.19
1037.00	54309.01
1038.00	54344.90
1039.00	54096.80
1040.00	53908.78
1041.00	53643.52
1042.00	53517.13
1043.00	53386.84
1044.00	53359.53
1045.00	53251.87
1046.00	53001.43
1047.00	52790.00
1048.00	52572.33
1049.00	52486.51
1050.00	52480.27
1051.00	52545.81
1052.00	52675.32
1053.00	52963.98
1054.00	53129.38
1055.00	53116.12
1056.00	52686.24
1057.00	52318.77
1058.00	51803.08
1059.00	51436.39
1060.00	51118.86
1061.00	51152.41
1062.00	51206.24
1063.00	51409.09
1064.00	51480.86
1065.00	51565.90
1066.00	51588.53
1067.00	51611.15
1068.00	51650.16
1069.00	51734.42
1070.00	52081.60
1071.00	52611.34
1072.00	53024.06
1073.00	53104.41
1074.00	52872.70
1075.00	52402.25
1076.00	51986.42
1077.00	51663.42
1078.00	51575.26
1079.00	51609.59
1080.00	51551.86
1081.00	51732.86
1082.00	51732.86
1083.00	52043.37
1084.00	52122.95
1085.00	52244.66
1086.00	52035.57
1087.00	52003.58
1088.00	51875.63
1089.00	51980.96
1090.00	51577.61
1091.00	51341.99
1092.00	51196.10
1093.00	51413.77
1094.00	51638.46
1095.00	51642.36
1096.00	51468.38
1097.00	51339.65
1098.00	51169.57
1099.00	50994.81
1100.00	50779.48
1101.00	50481.45
1102.00	50138.18
1103.00	49847.17
1104.00	49672.41
1105.00	49776.17
1106.00	50021.15
1107.00	50319.96
1108.00	50619.55
1109.00	50753.74
1110.00	50933.18
1111.00	50862.18
1112.00	50956.58
1113.00	50877.01
1114.00	50917.57
1115.00	50518.12
1116.00	50101.51
1117.00	49769.15
1118.00	49451.62
1119.00	49118.48
1120.00	48812.65
1121.00	48811.09
1122.00	48939.04
1123.00	49050.61
1124.00	49240.97
1125.00	49290.12
1126.00	49205.08
1127.00	48984.29
1128.00	48753.36
1129.00	48598.10
1130.00	48336.74
1131.00	48069.92
1132.00	47709.48
1133.00	47313.15
1134.00	47083.00
1135.00	46923.84
1136.00	47196.12
1137.00	47573.73
1138.00	48009.85
1139.00	48321.92
1140.00	48580.94
1141.00	48801.73
1142.00	48953.08
1143.00	48928.12
1144.00	48881.31
1145.00	48783.01
1146.00	48933.58
1147.00	48797.83
1148.00	48710.45
1149.00	48495.90
1150.00	48438.17
1151.00	48327.38
1152.00	48298.51
1153.00	48325.82
1154.00	48137.80
1155.00	47831.97
1156.00	47614.30
1157.00	47362.30
1158.00	47167.26
1159.00	46879.37
1160.00	46672.62
1161.00	46515.81
1162.00	46451.05
1163.00	46344.95
1164.00	46188.13
1165.00	46233.38
1166.00	46337.93
1167.00	46607.09
1168.00	46728.80
1169.00	46967.53
1170.00	46962.07
1171.00	46823.20
1172.00	46629.71
1173.00	46511.91
1174.00	46519.71
1175.00	46430.77
1176.00	46209.98
1177.00	45872.16
1178.00	45307.31
1179.00	45026.45
1180.00	44843.10
1181.00	45110.71
1182.00	45262.84
1183.00	45411.85
1184.00	45580.37
1185.00	45791.80
1186.00	45931.45
1187.00	45999.33
1188.00	45851.87
1189.00	45833.15
1190.00	45852.66
1191.00	45985.29
1192.00	45910.39
1193.00	45836.27
1194.00	45821.45
1195.00	46034.44
1196.00	46189.69
1197.00	46209.20
1198.00	46108.55
1199.00	45961.10
1200.00	45982.94
1201.00	46187.35
1202.00	46262.25
1203.00	46448.71
1204.00	46470.56
1205.00	46744.40
1206.00	46735.82
1207.00	46826.32
1208.00	46638.29
1209.00	46586.80
1210.00	46465.88
1211.00	46437.79
1212.00	46348.07
1213.00	46262.25
1214.00	46209.98
1215.00	46283.31
1216.00	46193.59
1217.00	46106.99
1218.00	45840.17
1219.00	45731.73
1220.00	45619.38
1221.00	45361.14
1222.00	44953.11
1223.00	44561.46
1224.00	44094.13
1225.00	43824.19
1226.00	43856.18
1227.00	43964.62
1228.00	44181.51
1229.00	44105.05
1230.00	44254.07
1231.00	44286.06
1232.00	44431.17
1233.00	44726.86
1234.00	44667.56
1235.00	44471.74
1236.00	44275.13
1237.00	44252.51
1238.00	44197.90
1239.00	43938.10
1240.00	43606.52
1241.00	43143.09
1242.00	42433.91
1243.00	41452.45
1244.00	40361.76
1245.00	39179.79
1246.00	38336.41
1247.00	37724.75
1248.00	37580.42
1249.00	37576.52
1250.00	38000.94
1251.00	38542.38
1252.00	39451.29
1253.00	40354.74
1254.00	41187.97
1255.00	41745.01
1256.00	42076.59
1257.00	42314.55
1258.00	42416.75
1259.00	42198.30
1260.00	41956.44
1261.00	41817.57
1262.00	41765.30
1263.00	41864.38
1264.00	41608.48
1265.00	41610.82
1266.00	41461.81
1267.00	41708.35
1268.00	41801.19
1269.00	41947.86
1270.00	41737.99
1271.00	41587.42
1272.00	41496.14
1273.00	41710.69
1274.00	41879.21
1275.00	41940.06
1276.00	41721.61
1277.00	41375.99
1278.00	40913.34
1279.00	40608.29
1280.00	40463.18
1281.00	40453.04
1282.00	40296.22
1283.00	40204.16
1284.00	40161.25
1285.00	40517.01
1286.00	40774.47
1287.00	40872.00
1288.00	40967.96
1289.00	41127.11
1290.00	41340.88
1291.00	41346.34
1292.00	41315.92
1293.00	41176.26
1294.00	41054.56
1295.00	41000.72
1296.00	41051.44
1297.00	40935.97
1298.00	40802.56
1299.00	40712.84
1300.00	40725.32
1301.00	40782.27
1302.00	40651.98
1303.00	40588.01
1304.00	40430.41
1305.00	40437.44
1306.00	40332.89
1307.00	40236.93
1308.00	40261.12
1309.00	40343.81
1310.00	40467.08
1311.00	40481.91
1312.00	40636.38
1313.00	40602.05
1314.00	40603.61
1315.00	40393.75
1316.00	40240.83
1317.00	40222.11
1318.00	40090.26
1319.00	39979.47
1320.00	39667.40
1321.00	39602.64
1322.00	39570.66
1323.00	39590.16
1324.00	39633.07
1325.00	39596.40
1326.00	39522.29
1327.00	39374.83
1328.00	39000.35
1329.00	38976.94
1330.00	38785.02
1331.00	39079.14
1332.00	38983.18
1333.00	39300.72
1334.00	39444.27
1335.00	39688.46
1336.00	39683.00
1337.00	39867.12
1338.00	39901.45
1339.00	40073.87
1340.00	40034.86
1341.00	39977.13
1342.00	39917.06
1343.00	39764.14
1344.00	39761.02
1345.00	39647.89
1346.00	39704.85
1347.00	39841.38
1348.00	39672.08
1349.00	39507.46
1350.00	39136.10
1351.00	39088.51
1352.00	38812.32
1353.00	38839.63
1354.00	38724.16
1355.00	38923.11
1356.00	38802.18
1357.00	38833.39
1358.00	38721.82
1359.00	38750.69
1360.00	38873.18
1361.00	38893.46
1362.00	39026.87
1363.00	39004.25
1364.00	38809.98
1365.00	38376.98
1366.00	38149.17
1367.00	38004.84
1368.00	37964.27
1369.00	37922.14
1370.00	37911.22
1371.00	37862.07
1372.00	37688.87
1373.00	37596.03
1374.00	37457.93
1375.00	37464.96
1376.00	37472.76
1377.00	37663.90
1378.00	37620.21
1379.00	37432.97
1380.00	37085.01
1381.00	36716.76
1382.00	36676.97
1383.00	36667.61
1384.00	36649.67
1385.00	36758.11
1386.00	36887.62
1387.00	37076.43
1388.00	37142.74
1389.00	37142.74
1390.00	36986.71
1391.00	36751.09
1392.00	36574.77
1393.00	36566.19
1394.00	36483.49
1395.00	36361.00
1396.00	36228.37
1397.00	36123.05
1398.00	36070.00
1399.00	36228.37
1400.00	36247.88
1401.00	36034.11
1402.00	35608.91
1403.00	35288.26
1404.00	35184.49
1405.00	35179.03
1406.00	35036.26
1407.00	35025.34
1408.00	35189.17
1409.00	35414.65
1410.00	35644.02
1411.00	35623.73
1412.00	35675.23
1413.00	35522.31
1414.00	35381.88
1415.00	35314.00
1416.00	35095.55
1417.00	34776.46
1418.00	34257.64
1419.00	33920.60
1420.00	33653.00
1421.00	33586.69
1422.00	33537.54
1423.00	33450.16
1424.00	33413.49
1425.00	33622.58
1426.00	33859.75
1427.00	34142.17
1428.00	34167.14
1429.00	34341.12
1430.00	34623.54
1431.00	34782.70
1432.00	34941.08
1433.00	34847.46
1434.00	34871.64
1435.00	34735.89
1436.00	34522.12
1437.00	34384.81
1438.00	34107.07
1439.00	33894.08
1440.00	33684.99
1441.00	33727.12
1442.00	33865.99
1443.00	34041.53
1444.00	34029.05
1445.00	34109.41
1446.00	34210.83
1447.00	34455.81
1448.00	34428.50
1449.00	34301.33
1450.00	34214.73
1451.00	34326.30
1452.00	34193.67
1453.00	33929.97
1454.00	33481.36
1455.00	33217.66
1456.00	32999.99
1457.00	32944.60
1458.00	33140.43
1459.00	33257.45
1460.00	33397.10
1461.00	33247.31
1462.00	33028.86
1463.00	32719.13
1464.00	32435.14
1465.00	32393.01
1466.00	32278.33
1467.00	32298.61
1468.00	32183.15
1469.00	32220.59
1470.00	32144.14
1471.00	32137.12
1472.00	32016.97
1473.00	31834.41
1474.00	31589.43
1475.00	31473.18
1476.00	31430.27
1477.00	31495.03
1478.00	31419.35
1479.00	31281.26
1480.00	30799.89
1481.00	30519.81
1482.00	30327.88
1483.00	30577.54
1484.00	30710.95
1485.00	30756.98
1486.00	30753.08
1487.00	30795.99
1488.00	30914.58
1489.00	30947.34
1490.00	30970.75
1491.00	31037.06
1492.00	30984.01
1493.00	30575.20
1494.00	29859.77
1495.00	29165.42
1496.00	28689.51
1497.00	28403.96
1498.00	28179.27
1499.00	28127.00
1500.00	28386.02
1501.00	28783.13
1502.00	29141.23
1503.00	29297.27
1504.00	29337.05
1505.00	29362.02
1506.00	29229.39
1507.00	29146.69
1508.00	28854.12
1509.00	28726.18
1510.00	28440.63
1511.00	28364.17
1512.00	28391.48
1513.00	28645.04
1514.00	28778.45
1515.00	28925.12
1516.00	28829.94
1517.00	28897.81
1518.00	28701.99
1519.00	28728.52
1520.00	28582.62
1521.00	28482.76
1522.00	28324.38
1523.00	28210.48
1524.00	28265.09
1525.00	28370.41
1526.00	28560.00
1527.00	28673.90
1528.00	28911.08
1529.00	28844.76
1530.00	29014.84
1531.00	28829.16
1532.00	28855.68
1533.00	28584.18
1534.00	28407.86
1535.00	28368.07
1536.00	28421.91
1537.00	28481.98
1538.00	28496.02
1539.00	28513.97
1540.00	28385.24
1541.00	28354.03
1542.00	28508.51
1543.00	28673.90
1544.00	28736.32
1545.00	28707.45
1546.00	28722.27
1547.00	28609.93
1548.00	28333.75
1549.00	28140.26
1550.00	27926.49
1551.00	27657.33
1552.00	27592.58
1553.00	27792.30
1554.00	28024.01
1555.00	28147.28
1556.00	28119.98
1557.00	28212.82
1558.00	28352.47
1559.00	28485.88
1560.00	28520.21
1561.00	28427.37
1562.00	28545.95
1563.00	28530.35
1564.00	28492.90
1565.00	28317.36
1566.00	28290.84
1567.00	28286.93
1568.00	28308.78
1569.00	28284.59
1570.00	28162.11
1571.00	28002.17
1572.00	27867.20
1573.00	27656.55
1574.00	27459.95
1575.00	27264.90
1576.00	27296.11
1577.00	27222.77
1578.00	27143.97
1579.00	27152.55
1580.00	27160.36
1581.00	27109.64
1582.00	27146.31
1583.00	27101.06
1584.00	27082.34
1585.00	26927.86
1586.00	26653.24
1587.00	26558.84
1588.00	26501.89
1589.00	26654.02
1590.00	26602.53
1591.00	26480.04
1592.00	26383.30
1593.00	26431.67
1594.00	26544.80
1595.00	26590.05
1596.00	26681.33
1597.00	26641.54
1598.00	26600.19
1599.00	26542.46
1600.00	26441.81
1601.00	26366.13
1602.00	26350.53
1603.00	26266.27
1604.00	26210.88
1605.00	26119.60
1606.00	26096.97
1607.00	26164.85
1608.00	26082.15
1609.00	26075.91
1610.00	25933.92
1611.00	25944.84
1612.00	25862.14
1613.00	25717.03
1614.00	25585.96
1615.00	25547.73
1616.00	25589.08
1617.00	25564.11
1618.00	25467.37
1619.00	25336.30
1620.00	25198.21
1621.00	25011.74
1622.00	24927.49
1623.00	24836.98
1624.00	24904.08
1625.00	24900.96
1626.00	24873.65
1627.00	24688.75
1628.00	24562.36
1629.00	24473.42
1630.00	24457.82
1631.00	24381.36
1632.00	24290.08
1633.00	24263.55
1634.00	24374.34
1635.00	24286.96
1636.00	24290.86
1637.00	24269.80
1638.00	24251.85
1639.00	24187.10
1640.00	23932.76
1641.00	23662.04
1642.00	23248.54
1643.00	22990.30
1644.00	22888.10
1645.00	23045.69
1646.00	23271.95
1647.00	23772.04
1648.00	24111.42
1649.00	24482.78
1650.00	24627.12
1651.00	24653.64
1652.00	24548.32
1653.00	24553.78
1654.00	24419.59
1655.00	24081.77
1656.00	23644.87
1657.00	23455.29
1658.00	23443.59
1659.00	23374.93
1660.00	23566.07
1661.00	23636.29
1662.00	23872.68
1663.00	23714.31
1664.00	23811.83
1665.00	23784.52
1666.00	23922.62
1667.00	23982.69
1668.00	23906.23
1669.00	23867.22
1670.00	23919.49
1671.00	23953.82
1672.00	23907.79
1673.00	23774.38
1674.00	23587.92
1675.00	23412.38
1676.00	23215.77
1677.00	23151.80
1678.00	22907.60
1679.00	22793.70
1680.00	22805.40
1681.00	22760.93
1682.00	22527.66
1683.00	22146.93
1684.00	21789.61
1685.00	21350.37
1686.00	20794.88
1687.00	20047.47
1688.00	19211.90
1689.00	18405.97
1690.00	18172.70
1691.00	18242.14
1692.00	18796.84
1693.00	19409.28
1694.00	20060.73
1695.00	20558.49
1696.00	20854.95
1697.00	21288.73
1698.00	21558.67
1699.00	21912.10
1700.00	22136.79
1701.00	22370.06
1702.00	22459.78
1703.00	22425.45
1704.00	22415.31
1705.00	22394.25
1706.00	22386.44
1707.00	22434.82
1708.00	22416.87
1709.00	22260.84
1710.00	22003.38
1711.00	21994.79
1712.00	22094.66
1713.00	22253.03
1714.00	22180.48
1715.00	22139.91
1716.00	21998.70
1717.00	22021.32
1718.00	22129.77
1719.00	22158.63
1720.00	22160.97
1721.00	22040.04
1722.00	22068.91
1723.00	22027.56
1724.00	21994.79
1725.00	22000.26
1726.00	21969.83
1727.00	21993.23
1728.00	21976.07
1729.00	22020.54
1730.00	22050.19
1731.00	21919.90
1732.00	21812.23
1733.00	21770.10
1734.00	21837.98
1735.00	21759.18
1736.00	21551.65
1737.00	21356.61
1738.00	21245.04
1739.00	21158.44
1740.00	21144.40
1741.00	21210.71
1742.00	21231.00
1743.00	21119.43
1744.00	21070.28
1745.00	21042.98
1746.00	21086.67
1747.00	21047.66
1748.00	20980.56
1749.00	20949.36
1750.00	20961.84
1751.00	21025.81
1752.00	21034.39
1753.00	20898.64
1754.00	20798.78
1755.00	20684.87
1756.00	20716.86
1757.00	20659.91
1758.00	20532.74
1759.00	20339.26
1760.00	20218.33
1761.00	20204.28
1762.00	20195.70
1763.00	20191.80
1764.00	20147.33
1765.00	20187.12
1766.00	20212.87
1767.00	20153.57
1768.00	20013.14
1769.00	19797.03
1770.00	19878.95
1771.00	19775.19
1772.00	19798.59
1773.00	19702.63
1774.00	19907.82
1775.00	19978.81
1776.00	20056.83
1777.00	19951.51
1778.00	19864.13
1779.00	19733.84
1780.00	19646.46
1781.00	19529.43
1782.00	19349.21
1783.00	19238.42
1784.00	19238.42
1785.00	19237.64
1786.00	19061.32
1787.00	19034.80
1788.00	19032.46
1789.00	19202.54
1790.00	19130.76
1791.00	19087.85
1792.00	18895.14
1793.00	18781.24
1794.00	18720.38
1795.00	18682.94
1796.00	18654.85
1797.00	18556.55
1798.00	18443.42
1799.00	18373.21
1800.00	18263.98
1801.00	18299.09
1802.00	18310.01
1803.00	18333.42
1804.00	18296.75
1805.00	18286.61
1806.00	18326.39
1807.00	18291.29
1808.00	18203.91
1809.00	18127.45
1810.00	18089.22
1811.00	17953.47
1812.00	17832.54
1813.00	17756.86
1814.00	17738.14
1815.00	17685.87
1816.00	17658.56
1817.00	17536.07
1818.00	17438.55
1819.00	17394.08
1820.00	17433.87
1821.00	17463.52
1822.00	17412.03
1823.00	17423.73
1824.00	17419.05
1825.00	17412.81
1826.00	17409.68
1827.00	17262.23
1828.00	17220.88
1829.00	17085.13
1830.00	17002.43
1831.00	16979.03
1832.00	16949.38
1833.00	16938.46
1834.00	16873.70
1835.00	16748.87
1836.00	16687.24
1837.00	16620.14
1838.00	16643.55
1839.00	16645.11
1840.00	16609.22
1841.00	16583.48
1842.00	16577.23
1843.00	16425.10
1844.00	16402.47
1845.00	16302.61
1846.00	16240.20
1847.00	16109.91
1848.00	16047.49
1849.00	16003.02
1850.00	15910.96
1851.00	15886.78
1852.00	15783.01
1853.00	15715.92
1854.00	15602.01
1855.00	15580.17
1856.00	15566.12
1857.00	15637.90
1858.00	15652.72
1859.00	15613.71
1860.00	15485.76
1861.00	15430.37
1862.00	15271.22
1863.00	15256.39
1864.00	15209.58
1865.00	15332.85
1866.00	15177.59
1867.00	15061.35
1868.00	14895.17
1869.00	14888.15
1870.00	14919.35
1871.00	14940.42
1872.00	14824.95
1873.00	14781.26
1874.00	14678.28
1875.00	14744.59
1876.00	14661.90
1877.00	14599.48
1878.00	14588.56
1879.00	14532.39
1880.00	14476.21
1881.00	14281.17
1882.00	14164.92
1883.00	14114.21
1884.00	14090.81
1885.00	13994.84
1886.00	13876.26
1887.00	13732.70
1888.00	13667.17
1889.00	13640.64
1890.00	13688.23
1891.00	13735.82
1892.00	13672.63
1893.00	13616.46
1894.00	13516.59
1895.00	13542.34
1896.00	13528.30
1897.00	13439.36
1898.00	13298.92
1899.00	13254.45
1900.00	13305.95
1901.00	13274.74
1902.00	13065.65
1903.00	12816.77
1904.00	12439.95
1905.00	11884.46
1906.00	11030.94
1907.00	10068.98
1908.00	9246.68
1909.00	8602.25
1910.00	8198.12
1911.00	8004.63
1912.00	8069.39
1913.00	8379.90
1914.00	8735.66
1915.00	9128.87
1916.00	9609.46
1917.00	9977.70
1918.00	10224.24
1919.00	10209.42
1920.00	10146.22
1921.00	10047.14
1922.00	9867.70
1923.00	9680.46
1924.00	9614.14
1925.00	9578.25
1926.00	9600.88
1927.00	9540.02
1928.00	9625.06
1929.00	9672.65
1930.00	9795.92
1931.00	9806.06
1932.00	9917.63
1933.00	10032.32
1934.00	10139.20
1935.00	10222.68
1936.00	10156.36
1937.00	10209.42
1938.00	10212.54
1939.00	10235.16
1940.00	10342.05
1941.00	10376.38
1942.00	10459.85
1943.00	10403.68
1944.00	10450.49
1945.00	10497.30
1946.00	10480.14
1947.00	10349.07
1948.00	10323.32
1949.00	10276.51
1950.00	10319.42
1951.00	10181.33
1952.00	10051.82
1953.00	9923.09
1954.00	9966.00
1955.00	9982.38
1956.00	9949.62
1957.00	9815.43
1958.00	9697.62
1959.00	9611.80
1960.00	9525.98
1961.00	9438.60
1962.00	9383.21
1963.00	9379.31
1964.00	9465.91
1965.00	9420.66
1966.00	9348.88
1967.00	9278.66
1968.00	9314.55
1969.00	9278.66
1970.00	9235.75
1971.00	9199.09
1972.00	9201.43
1973.00	9273.98
1974.00	9277.10
1975.00	9298.95
1976.00	9235.75
1977.00	9201.43
1978.00	9224.83
1979.00	9230.29
1980.00	9285.69
1981.00	9333.28
1982.00	9384.77
1983.00	9343.42
1984.00	9249.02
1985.00	9177.24
1986.00	9113.27
1987.00	9056.31
1988.00	8926.80
1989.00	8879.99
1990.00	8794.17
1991.00	8819.14
1992.00	8742.68
1993.00	8695.87
1994.00	8596.79
1995.00	8518.77
1996.00	8462.60
1997.00	8363.51
1998.00	8316.70
1999.00	8155.99
2000.00	8063.15
2001.00	8005.41
2002.00	8077.19
2003.00	8116.20
2004.00	8063.15
2005.00	7965.62
2006.00	7900.87
2007.00	7856.40
2008.00	7792.42
2009.00	7737.03
2010.00	7726.11
2011.00	7775.26
2012.00	7752.63
2013.00	7699.58
2014.00	7597.38
2015.00	7596.60
2016.00	7590.36
2017.00	7598.16
2018.00	7549.79
2019.00	7503.76
2020.00	7426.52
2021.00	7363.33
2022.00	7343.82
2023.00	7314.17
2024.00	7258.78
2025.00	7203.39
2026.00	7161.26
2027.00	7177.64
2028.00	7192.47
2029.00	7174.52
2030.00	7263.46
2031.00	7267.36
2032.00	7396.87
2033.00	7290.77
2034.00	7224.45
2035.00	7069.20
2036.00	7030.19
2037.00	7024.73
2038.00	7069.98
2039.00	7085.58
2040.00	7087.14
2041.00	7052.81
2042.00	6958.41
2043.00	6880.39
2044.00	6837.49
2045.00	6782.09
2046.00	6756.35
2047.00	6752.45
>>>>>End Processed Spectral Data<<<<<
