SpectraSuite Data File
++++++++++++++++++++++++++++++++++++
Date: Thu Nov 16 13:32:52 EST 2017
User: cheriyan
Dark Spectrum Present: No
Reference Spectrum Present: No
Number of Sampled Component Spectra: 1
Spectrometers: USB2+H05261
Integration Time (usec): 90000 (USB2+H05261)
Spectra Averaged: 1 (USB2+H05261)
Boxcar Smoothing: 1 (USB2+H05261)
Correct for Electrical Dark: No (USB2+H05261)
Strobe/Lamp Enabled: No (USB2+H05261)
Correct for Detector Non-linearity: No (USB2+H05261)
Correct for Stray Light: No (USB2+H05261)
Number of Pixels in Processed Spectrum: 2048
>>>>>Begin Processed Spectral Data<<<<<
0.00	407.25
1.00	407.25
2.00	372.15
3.00	315.97
4.00	259.02
5.00	230.15
6.00	262.14
7.00	283.20
8.00	306.61
9.00	298.03
10.00	262.92
11.00	262.92
12.00	247.32
13.00	277.74
14.00	265.26
15.00	275.40
16.00	267.60
17.00	280.86
18.00	273.06
19.00	266.82
20.00	278.52
21.00	296.47
22.00	344.84
23.00	801.24
24.00	2448.98
25.00	4213.74
26.00	5589.98
27.00	5728.07
28.00	5623.53
29.00	5373.09
30.00	5198.33
31.00	5089.88
32.00	5136.70
33.00	5200.67
34.00	5204.57
35.00	5066.48
36.00	4794.98
37.00	4662.35
38.00	4645.96
39.00	4763.77
40.00	4833.99
41.00	4883.92
42.00	4833.99
43.00	4757.53
44.00	4798.10
45.00	5003.29
46.00	5369.97
47.00	5630.55
48.00	5756.94
49.00	5719.49
50.00	5675.80
51.00	5689.06
52.00	5770.98
53.00	5891.91
54.00	6054.19
55.00	6252.35
56.00	6466.12
57.00	6732.16
58.00	6999.76
59.00	7267.36
60.00	7389.85
61.00	7358.64
62.00	7211.97
63.00	6983.38
64.00	6723.58
65.00	6449.74
66.00	6231.29
67.00	6095.54
68.00	6007.38
69.00	6043.26
70.00	6170.43
71.00	6402.15
72.00	6629.18
73.00	6844.51
74.00	6955.29
75.00	6882.74
76.00	6716.56
77.00	6497.33
78.00	6259.37
79.00	5969.93
80.00	5678.14
81.00	5415.22
82.00	5117.19
83.00	4895.62
84.00	4707.60
85.00	4632.70
86.00	4558.58
87.00	4531.28
88.00	4572.63
89.00	4631.14
90.00	4855.05
91.00	5223.30
92.00	5713.25
93.00	6162.63
94.00	6448.18
95.00	6605.77
96.00	6577.69
97.00	6532.44
98.00	6369.38
99.00	6221.14
100.00	6120.50
101.00	6147.03
102.00	6349.09
103.00	6599.53
104.00	6742.30
105.00	6680.67
106.00	6536.34
107.00	6452.08
108.00	6486.40
109.00	6530.87
110.00	6601.87
111.00	6597.19
112.00	6590.17
113.00	6553.50
114.00	6629.96
115.00	6786.77
116.00	7126.93
117.00	7510.78
118.00	7801.01
119.00	8050.66
120.00	8277.69
121.00	8457.14
122.00	8490.68
123.00	8489.12
124.00	8528.13
125.00	8678.71
126.00	8900.28
127.00	9273.20
128.00	9529.10
129.00	9544.70
130.00	9326.25
131.00	8982.98
132.00	8610.83
133.00	8154.43
134.00	7612.98
135.00	6941.25
136.00	6140.01
137.00	5389.47
138.00	4795.76
139.00	4593.69
140.00	4780.93
141.00	5313.80
142.00	6132.98
143.00	6904.58
144.00	7666.81
145.00	8301.88
146.00	8964.25
147.00	9514.28
148.00	9830.25
149.00	10051.82
150.00	10056.50
151.00	9900.47
152.00	9381.65
153.00	8631.12
154.00	7700.36
155.00	6769.61
156.00	6083.05
157.00	5776.44
158.00	6047.94
159.00	6835.14
160.00	7926.61
161.00	9142.13
162.00	10218.78
163.00	11076.98
164.00	11649.63
165.00	12085.75
166.00	12561.66
167.00	12847.98
168.00	13170.19
169.00	13337.15
170.00	13611.00
171.00	13683.55
172.00	13779.51
173.00	13887.96
174.00	13942.57
175.00	14063.50
176.00	14095.49
177.00	14356.85
178.00	14517.56
179.00	14818.71
180.00	14979.43
181.00	15234.55
182.00	15406.97
183.00	15576.27
184.00	15698.75
185.00	15673.79
186.00	15639.46
187.00	15467.04
188.00	15289.94
189.00	15059.01
190.00	14923.26
191.00	15050.42
192.00	15305.54
193.00	15594.21
194.00	15740.88
195.00	15553.64
196.00	15207.24
197.00	14964.61
198.00	15143.27
199.00	15272.78
200.00	15396.82
201.00	15359.38
202.00	15388.24
203.00	15257.17
204.00	15080.85
205.00	14881.91
206.00	14610.40
207.00	14590.12
208.00	14825.73
209.00	15244.69
210.00	15381.22
211.00	15360.94
212.00	15220.50
213.00	15379.66
214.00	15660.52
215.00	16041.25
216.00	16313.53
217.00	16733.27
218.00	17021.94
219.00	17262.23
220.00	17243.51
221.00	17330.89
222.00	17035.20
223.00	16446.94
224.00	15781.45
225.00	15223.62
226.00	14989.57
227.00	15052.77
228.00	15462.36
229.00	16105.23
230.00	16812.07
231.00	17495.50
232.00	18072.84
233.00	18350.58
234.00	18557.33
235.00	18636.13
236.00	18728.97
237.00	18719.60
238.00	18587.75
239.00	18416.12
240.00	18189.86
241.00	18101.70
242.00	18016.66
243.00	18203.13
244.00	18446.54
245.00	18686.84
246.00	18835.07
247.00	18845.21
248.00	18798.40
249.00	18771.10
250.00	18856.92
251.00	18969.26
252.00	19043.38
253.00	18978.62
254.00	19108.13
255.00	19389.00
256.00	19836.04
257.00	20170.74
258.00	20396.21
259.00	20329.89
260.00	20279.18
261.00	20002.22
262.00	19847.74
263.00	19563.76
264.00	19384.32
265.00	19334.39
266.00	19387.44
267.00	19530.99
268.00	19595.75
269.00	19580.14
270.00	19630.07
271.00	19682.34
272.00	20013.14
273.00	20339.26
274.00	20381.38
275.00	20187.12
276.00	19758.02
277.00	19540.35
278.00	19444.39
279.00	19760.36
280.00	20279.18
281.00	20915.03
282.00	21371.43
283.00	21722.51
284.00	21817.69
285.00	21739.68
286.00	21664.00
287.00	21424.48
288.00	21207.59
289.00	20719.20
290.00	20225.35
291.00	19571.56
292.00	19298.50
293.00	19484.18
294.00	20012.36
295.00	20372.02
296.00	20528.84
297.00	20417.27
298.00	20552.24
299.00	20572.53
300.00	20811.26
301.00	20480.47
302.00	20381.38
303.00	20168.40
304.00	20233.15
305.00	20205.84
306.00	20106.76
307.00	20113.78
308.00	19922.64
309.00	19855.54
310.00	19961.65
311.00	20318.97
312.00	20391.53
313.00	20272.16
314.00	19643.34
315.00	19127.64
316.00	18690.74
317.00	18817.13
318.00	19147.92
319.00	19515.39
320.00	19882.07
321.00	20027.96
322.00	19921.08
323.00	19522.41
324.00	19312.54
325.00	19114.38
326.00	19035.58
327.00	18767.20
328.00	18278.02
329.00	17506.43
330.00	16732.49
331.00	15828.26
332.00	15193.98
333.00	14656.43
334.00	14592.46
335.00	14670.48
336.00	15169.79
337.00	16354.88
338.00	18203.91
339.00	20201.16
340.00	21667.12
341.00	22260.06
342.00	21811.45
343.00	21205.25
344.00	20588.13
345.00	20776.16
346.00	21354.27
347.00	22068.91
348.00	22448.86
349.00	22224.95
350.00	21415.12
351.00	20354.08
352.00	19545.81
353.00	19679.22
354.00	20361.88
355.00	21017.23
356.00	21580.52
357.00	21971.39
358.00	22238.21
359.00	22403.61
360.00	22483.97
361.00	23023.07
362.00	23343.72
363.00	23710.41
364.00	23851.62
365.00	23944.46
366.00	23985.81
367.00	23832.90
368.00	23642.53
369.00	23318.76
370.00	23183.01
371.00	23028.53
372.00	22799.16
373.00	22184.38
374.00	21474.42
375.00	21052.34
376.00	20904.88
377.00	21042.20
378.00	21400.30
379.00	21980.75
380.00	22554.96
381.00	23213.43
382.00	23719.77
383.00	24154.33
384.00	24094.25
385.00	23740.05
386.00	23569.97
387.00	23650.33
388.00	24041.98
389.00	24723.86
390.00	25448.64
391.00	25973.70
392.00	26232.72
393.00	26512.03
394.00	26826.44
395.00	27089.36
396.00	27182.98
397.00	27491.15
398.00	27693.22
399.00	27948.34
400.00	27779.82
401.00	27574.63
402.00	27427.96
403.00	27589.45
404.00	27881.24
405.00	28091.11
406.00	28369.63
407.00	28129.34
408.00	27874.22
409.00	27740.03
410.00	28006.85
411.00	28205.80
412.00	27697.12
413.00	26984.82
414.00	26194.50
415.00	25749.79
416.00	25672.56
417.00	25864.48
418.00	26414.51
419.00	26803.03
420.00	27213.41
421.00	27592.58
422.00	27990.47
423.00	28358.71
424.00	28629.43
425.00	28781.57
426.00	28680.14
427.00	28493.68
428.00	28411.76
429.00	28425.81
430.00	28519.43
431.00	28368.85
432.00	28305.66
433.00	28109.83
434.00	28325.16
435.00	28440.63
436.00	28733.20
437.00	29027.32
438.00	29470.47
439.00	29915.17
440.00	30597.82
441.00	30948.90
442.00	31237.57
443.00	30961.39
444.00	30765.56
445.00	30553.35
446.00	30384.83
447.00	30399.66
448.00	30221.78
449.00	30028.29
450.00	29682.67
451.00	29269.96
452.00	28661.42
453.00	28020.11
454.00	27603.50
455.00	27475.55
456.00	27742.37
457.00	28182.39
458.00	28765.96
459.00	29073.35
460.00	29342.52
461.00	29622.60
462.00	29852.75
463.00	29626.50
464.00	29268.40
465.00	29032.79
466.00	29078.82
467.00	29481.39
468.00	29573.45
469.00	30082.13
470.00	30359.87
471.00	30950.46
472.00	31022.24
473.00	31044.09
474.00	31246.15
475.00	31396.73
476.00	31576.95
477.00	31603.47
478.00	31746.25
479.00	31866.39
480.00	31564.46
481.00	31340.55
482.00	30742.94
483.00	30376.25
484.00	30252.98
485.00	30486.26
486.00	30860.74
487.00	30883.37
488.00	30780.39
489.00	30639.95
490.00	30554.13
491.00	30521.37
492.00	30794.43
493.00	30885.71
494.00	31246.15
495.00	31130.69
496.00	31500.49
497.00	31669.01
498.00	32020.87
499.00	32109.03
500.00	31935.05
501.00	32041.93
502.00	32169.88
503.00	32446.07
504.00	32618.49
505.00	32603.66
506.00	32743.31
507.00	32787.00
508.00	32828.35
509.00	32913.39
510.00	32824.45
511.00	32744.09
512.00	32545.15
513.00	32381.31
514.00	32269.75
515.00	32077.04
516.00	31978.74
517.00	31703.34
518.00	31402.19
519.00	31062.03
520.00	31382.68
521.00	31661.21
522.00	31950.65
523.00	32021.65
524.00	32260.38
525.00	32553.73
526.00	32292.37
527.00	31899.94
528.00	31216.50
529.00	30787.41
530.00	30527.61
531.00	30680.52
532.00	31043.31
533.00	31409.99
534.00	31561.34
535.00	31765.75
536.00	31552.76
537.00	31437.30
538.00	31391.26
539.00	31737.66
540.00	31890.58
541.00	31845.33
542.00	31823.48
543.00	31863.27
544.00	31890.58
545.00	31743.13
546.00	31450.56
547.00	31207.14
548.00	31071.39
549.00	31172.03
550.00	31208.70
551.00	31106.50
552.00	31171.25
553.00	31387.36
554.00	31822.70
555.00	32235.42
556.00	32635.65
557.00	33267.59
558.00	33868.33
559.00	34299.77
560.00	34274.02
561.00	34039.97
562.00	33606.97
563.00	33333.13
564.00	33102.20
565.00	33244.19
566.00	33443.13
567.00	33331.57
568.00	33475.90
569.00	33353.41
570.00	33967.41
571.00	34412.12
572.00	34971.50
573.00	34999.59
574.00	35086.97
575.00	35024.56
576.00	35158.75
577.00	34867.74
578.00	34930.94
579.00	34685.18
580.00	34756.96
581.00	34416.02
582.00	34478.43
583.00	34354.38
584.00	34766.32
585.00	35190.73
586.00	35885.09
587.00	36168.30
588.00	36406.25
589.00	36751.09
590.00	37409.56
591.00	37897.95
592.00	38141.37
593.00	38050.09
594.00	37900.29
595.00	37674.82
596.00	37752.84
597.00	38155.41
598.00	38740.55
599.00	39171.99
600.00	39522.29
601.00	39602.64
602.00	39717.33
603.00	39673.64
604.00	39963.87
605.00	40410.91
606.00	40580.99
607.00	40617.66
608.00	40726.10
609.00	41020.23
610.00	41433.72
611.00	41585.86
612.00	42032.12
613.00	42446.40
614.00	42632.86
615.00	42515.05
616.00	42182.70
617.00	42256.03
618.00	42355.11
619.00	42621.94
620.00	42814.64
621.00	43147.00
622.00	43258.56
623.00	43480.91
624.00	43332.68
625.00	43288.21
626.00	43232.04
627.00	43339.70
628.00	43593.26
629.00	43937.32
630.00	44390.60
631.00	44345.35
632.00	43489.49
633.00	42657.82
634.00	41254.28
635.00	39692.36
636.00	37886.25
637.00	37182.53
638.00	37502.40
639.00	38465.14
640.00	39707.19
641.00	40849.37
642.00	41749.70
643.00	42535.34
644.00	43534.74
645.00	44376.56
646.00	45407.95
647.00	45902.59
648.00	46579.00
649.00	46767.80
650.00	46668.72
651.00	46355.09
652.00	45808.18
653.00	45925.99
654.00	46408.92
655.00	47532.38
656.00	48616.83
657.00	49457.86
658.00	50014.13
659.00	50206.05
660.00	50348.82
661.00	50144.42
662.00	50133.49
663.00	49976.68
664.00	49915.04
665.00	49688.79
666.00	49772.27
667.00	49716.88
668.00	49434.45
669.00	48754.92
670.00	48140.92
671.00	48027.79
672.00	48581.72
673.00	49503.11
674.00	50622.67
675.00	51348.23
676.00	51643.92
677.00	51437.17
678.00	51182.05
679.00	51075.17
680.00	51104.04
681.00	51386.46
682.00	51940.39
683.00	52566.87
684.00	53056.82
685.00	53388.40
686.00	53669.26
687.00	53731.68
688.00	53481.24
689.00	53116.12
690.00	52774.40
691.00	52704.18
692.00	52706.52
693.00	53061.51
694.00	53525.71
695.00	53957.15
696.00	54068.72
697.00	54001.62
698.00	54120.99
699.00	54184.96
700.00	54388.59
701.00	54446.32
702.00	54485.33
703.00	54100.70
704.00	53561.60
705.00	52928.09
706.00	52827.45
707.00	53001.43
708.00	53524.15
709.00	54018.00
710.00	54396.39
711.00	54678.82
712.00	54811.45
713.00	54774.78
714.00	54641.37
715.00	54274.68
716.00	53940.77
717.00	53606.85
718.00	53301.02
719.00	53219.10
720.00	53180.09
721.00	53050.58
722.00	53004.55
723.00	52895.33
724.00	52947.60
725.00	52653.47
726.00	52580.13
727.00	52858.66
728.00	53365.77
729.00	53792.53
730.00	54025.81
731.00	54195.10
732.00	54384.69
733.00	54585.19
734.00	54582.07
735.00	54291.07
736.00	53670.82
737.00	53174.63
738.00	52901.57
739.00	53062.29
740.00	53434.43
741.00	53918.14
742.00	54249.72
743.00	54414.33
744.00	54705.34
745.00	55012.73
746.00	55391.12
747.00	55750.00
748.00	55970.01
749.00	56128.39
750.00	55992.64
751.00	55775.75
752.00	55616.59
753.00	55332.60
754.00	55216.36
755.00	55100.11
756.00	55182.81
757.00	55107.13
758.00	54903.51
759.00	54564.91
760.00	54303.55
761.00	54230.21
762.00	54375.33
763.00	54727.97
764.00	55158.62
765.00	55515.17
766.00	55912.28
767.00	56174.42
768.00	56222.01
769.00	56108.10
770.00	55899.01
771.00	55788.23
772.00	55704.75
773.00	55542.47
774.00	55582.26
775.00	55538.57
776.00	55612.69
777.00	55682.90
778.00	55845.18
779.00	56132.29
780.00	56360.10
781.00	56684.65
782.00	56845.37
783.00	56880.48
784.00	56633.16
785.00	56190.02
786.00	55743.76
787.00	55421.55
788.00	55453.53
789.00	55544.03
790.00	55689.93
791.00	55710.21
792.00	55678.22
793.00	55453.53
794.00	55242.88
795.00	55012.73
796.00	54940.17
797.00	54974.50
798.00	55085.29
799.00	55224.16
800.00	55265.51
801.00	55358.35
802.00	55528.43
803.00	55636.87
804.00	55799.15
805.00	55985.61
806.00	56129.95
807.00	55852.20
808.00	55160.97
809.00	54095.24
810.00	52793.12
811.00	51324.05
812.00	50100.73
813.00	49567.09
814.00	50047.68
815.00	51319.37
816.00	52824.33
817.00	53697.35
818.00	53727.00
819.00	53102.85
820.00	52364.81
821.00	52152.60
822.00	52358.56
823.00	53040.44
824.00	53599.83
825.00	54217.73
826.00	54566.47
827.00	54930.03
828.00	55209.34
829.00	55583.04
830.00	55881.85
831.00	55908.38
832.00	55762.48
833.00	55386.44
834.00	55345.87
835.00	55363.81
836.00	55703.19
837.00	55933.34
838.00	56097.18
839.00	56158.03
840.00	56245.41
841.00	56311.73
842.00	56396.77
843.00	56133.07
844.00	55809.29
845.00	55391.90
846.00	55185.15
847.00	55080.61
848.00	55082.95
849.00	55320.90
850.00	55657.94
851.00	56120.59
852.00	56530.18
853.00	56914.81
854.00	57139.50
855.00	57213.62
856.00	57180.85
857.00	56963.96
858.00	56743.17
859.00	56504.43
860.00	56495.85
861.00	56520.04
862.00	56724.44
863.00	56838.35
864.00	56644.87
865.00	56107.32
866.00	55177.35
867.00	54286.39
868.00	53354.85
869.00	52687.02
870.00	52342.18
871.00	52561.41
872.00	53084.13
873.00	53829.20
874.00	54490.79
875.00	55114.94
876.00	55479.28
877.00	55626.73
878.00	55802.27
879.00	56033.99
880.00	56408.47
881.00	56768.13
882.00	56970.98
883.00	57145.74
884.00	56924.17
885.00	56647.99
886.00	56214.21
887.00	56016.82
888.00	55968.45
889.00	56010.58
890.00	56196.26
891.00	56455.28
892.00	56786.86
893.00	56899.98
894.00	56928.85
895.00	56921.05
896.00	56893.74
897.00	56772.03
898.00	56541.88
899.00	56383.51
900.00	56101.86
901.00	55733.62
902.00	55271.75
903.00	54695.20
904.00	54279.36
905.00	54111.63
906.00	54388.59
907.00	54809.10
908.00	55193.73
909.00	55668.08
910.00	55908.38
911.00	55817.10
912.00	55466.02
913.00	55278.77
914.00	55231.18
915.00	55414.52
916.00	55519.85
917.00	55834.26
918.00	56041.01
919.00	56175.98
920.00	56312.51
921.00	56445.14
922.00	56574.65
923.00	56572.31
924.00	56308.61
925.00	56051.15
926.00	55679.78
927.00	55304.52
928.00	54712.36
929.00	54312.13
930.00	54255.18
931.00	54568.03
932.00	55020.53
933.00	55368.49
934.00	55518.29
935.00	55559.64
936.00	55480.84
937.00	55590.84
938.00	55487.86
939.00	55439.49
940.00	55280.33
941.00	55092.31
942.00	54876.98
943.00	54593.78
944.00	54409.65
945.00	54259.08
946.00	54137.37
947.00	53927.50
948.00	53841.68
949.00	53620.89
950.00	53546.78
951.00	53344.71
952.00	53212.86
953.00	53229.24
954.00	53471.88
955.00	53896.30
956.00	54168.58
957.00	54326.17
958.00	54498.59
959.00	54585.19
960.00	54443.20
961.00	54165.46
962.00	53998.50
963.00	54008.64
964.00	54064.03
965.00	54018.00
966.00	54068.72
967.00	54188.86
968.00	54449.44
969.00	54536.82
970.00	54822.37
971.00	55042.38
972.00	55251.47
973.00	54967.48
974.00	54741.23
975.00	54627.32
976.00	54656.97
977.00	54592.22
978.00	54455.68
979.00	54429.94
980.00	54356.60
981.00	54565.69
982.00	54547.75
983.00	54448.66
984.00	54250.50
985.00	54167.80
986.00	54245.04
987.00	54070.28
988.00	54143.61
989.00	54010.20
990.00	54012.54
991.00	53634.94
992.00	53373.58
993.00	53070.87
994.00	53119.24
995.00	53300.24
996.00	53670.04
997.00	54042.19
998.00	54287.17
999.00	54373.77
1000.00	54364.40
1001.00	54420.58
1002.00	54333.20
1003.00	54079.64
1004.00	53925.16
1005.00	53877.57
1006.00	54002.40
1007.00	54032.05
1008.00	53920.48
1009.00	53703.59
1010.00	53532.73
1011.00	53460.96
1012.00	53526.49
1013.00	53326.77
1014.00	53349.39
1015.00	53343.15
1016.00	53598.27
1017.00	53833.88
1018.00	54049.21
1019.00	54156.88
1020.00	54015.66
1021.00	53788.63
1022.00	53520.25
1023.00	53134.84
1024.00	52837.59
1025.00	52857.10
1026.00	53221.44
1027.00	53505.43
1028.00	53702.03
1029.00	53599.05
1030.00	53585.78
1031.00	53718.42
1032.00	53881.47
1033.00	54017.22
1034.00	53888.49
1035.00	53865.87
1036.00	53993.82
1037.00	53940.77
1038.00	53885.37
1039.00	53592.03
1040.00	53481.24
1041.00	53327.55
1042.00	53168.39
1043.00	52974.12
1044.00	52878.94
1045.00	52836.81
1046.00	52711.20
1047.00	52425.66
1048.00	52205.65
1049.00	52092.52
1050.00	52161.18
1051.00	52238.42
1052.00	52363.25
1053.00	52545.03
1054.00	52654.25
1055.00	52616.02
1056.00	52374.17
1057.00	51945.85
1058.00	51472.28
1059.00	51004.95
1060.00	50730.33
1061.00	50642.17
1062.00	50843.46
1063.00	50969.85
1064.00	51121.20
1065.00	50966.73
1066.00	51116.52
1067.00	51036.16
1068.00	51189.08
1069.00	51219.50
1070.00	51711.80
1071.00	52125.29
1072.00	52541.91
1073.00	52585.60
1074.00	52284.45
1075.00	51758.61
1076.00	51263.19
1077.00	51113.40
1078.00	51018.22
1079.00	51125.88
1080.00	51126.66
1081.00	51287.38
1082.00	51395.04
1083.00	51468.38
1084.00	51629.10
1085.00	51568.24
1086.00	51661.86
1087.00	51484.76
1088.00	51310.00
1089.00	51136.02
1090.00	50967.51
1091.00	50910.55
1092.00	50829.41
1093.00	50803.67
1094.00	50898.07
1095.00	50889.49
1096.00	50910.55
1097.00	50810.69
1098.00	50698.34
1099.00	50420.60
1100.00	50138.96
1101.00	49709.86
1102.00	49466.44
1103.00	49291.68
1104.00	49298.70
1105.00	49376.72
1106.00	49536.66
1107.00	49751.99
1108.00	49922.85
1109.00	50086.68
1110.00	50388.61
1111.00	50621.11
1112.00	50654.65
1113.00	50454.93
1114.00	50209.17
1115.00	49940.79
1116.00	49616.24
1117.00	49280.76
1118.00	48932.80
1119.00	48565.34
1120.00	48367.95
1121.00	48399.94
1122.00	48690.16
1123.00	48873.51
1124.00	49008.48
1125.00	48915.64
1126.00	48791.59
1127.00	48550.51
1128.00	48410.86
1129.00	48193.97
1130.00	47945.09
1131.00	47644.73
1132.00	47163.36
1133.00	46734.26
1134.00	46305.94
1135.00	46362.11
1136.00	46614.89
1137.00	47132.93
1138.00	47628.34
1139.00	48052.76
1140.00	48218.16
1141.00	48383.55
1142.00	48460.01
1143.00	48461.57
1144.00	48455.33
1145.00	48230.64
1146.00	48332.84
1147.00	48096.45
1148.00	48098.79
1149.00	47986.44
1150.00	47854.59
1151.00	47732.89
1152.00	47650.97
1153.00	47565.15
1154.00	47392.73
1155.00	47240.59
1156.00	47098.60
1157.00	46971.43
1158.00	46530.63
1159.00	46276.29
1160.00	46103.09
1161.00	46070.32
1162.00	46040.68
1163.00	45915.07
1164.00	45894.00
1165.00	45919.75
1166.00	45964.22
1167.00	46090.61
1168.00	46380.84
1169.00	46492.40
1170.00	46469.00
1171.00	46202.18
1172.00	46104.65
1173.00	45975.92
1174.00	45868.26
1175.00	45815.99
1176.00	45479.73
1177.00	45127.87
1178.00	44684.73
1179.00	44453.01
1180.00	44445.99
1181.00	44409.32
1182.00	44776.79
1183.00	44910.20
1184.00	45237.09
1185.00	45161.42
1186.00	45253.48
1187.00	45454.76
1188.00	45585.05
1189.00	45691.16
1190.00	45654.49
1191.00	45782.44
1192.00	45473.49
1193.00	45274.54
1194.00	45101.34
1195.00	45435.26
1196.00	45453.20
1197.00	45464.91
1198.00	45373.63
1199.00	45409.51
1200.00	45487.53
1201.00	45575.69
1202.00	45757.47
1203.00	46015.71
1204.00	46112.45
1205.00	46248.21
1206.00	46156.92
1207.00	46265.37
1208.00	46134.30
1209.00	46120.26
1210.00	45904.15
1211.00	45855.78
1212.00	45761.37
1213.00	45741.09
1214.00	45509.38
1215.00	45496.89
1216.00	45430.58
1217.00	45457.10
1218.00	45357.24
1219.00	45287.81
1220.00	45246.46
1221.00	44829.06
1222.00	44493.58
1223.00	44141.72
1224.00	43920.93
1225.00	43585.46
1226.00	43298.35
1227.00	43232.82
1228.00	43357.64
1229.00	43587.02
1230.00	43668.94
1231.00	43824.19
1232.00	43943.56
1233.00	44178.39
1234.00	44140.94
1235.00	44041.08
1236.00	43882.70
1237.00	43747.73
1238.00	43603.40
1239.00	43415.38
1240.00	43134.51
1241.00	42616.47
1242.00	41965.03
1243.00	41049.88
1244.00	39958.41
1245.00	38645.37
1246.00	37836.32
1247.00	37329.20
1248.00	37281.61
1249.00	37402.54
1250.00	37645.18
1251.00	38141.37
1252.00	38877.08
1253.00	39922.52
1254.00	40798.66
1255.00	41187.19
1256.00	41597.56
1257.00	41862.82
1258.00	42119.50
1259.00	41734.09
1260.00	41394.71
1261.00	41279.25
1262.00	41379.89
1263.00	41290.95
1264.00	41038.95
1265.00	40949.23
1266.00	41126.33
1267.00	41212.93
1268.00	41385.35
1269.00	41364.29
1270.00	41164.56
1271.00	40926.61
1272.00	41024.91
1273.00	41333.86
1274.00	41602.24
1275.00	41450.11
1276.00	41216.05
1277.00	40987.46
1278.00	40680.07
1279.00	40435.88
1280.00	39930.32
1281.00	39869.47
1282.00	39897.55
1283.00	39928.76
1284.00	39777.40
1285.00	39867.91
1286.00	40073.87
1287.00	40283.74
1288.00	40395.31
1289.00	40583.33
1290.00	40824.40
1291.00	40818.16
1292.00	40881.36
1293.00	40694.11
1294.00	40668.37
1295.00	40779.15
1296.00	40903.20
1297.00	40722.20
1298.00	40456.16
1299.00	40308.71
1300.00	40293.88
1301.00	40257.21
1302.00	40231.47
1303.00	40147.99
1304.00	40101.96
1305.00	39947.48
1306.00	40064.51
1307.00	39900.67
1308.00	39948.26
1309.00	39764.14
1310.00	39894.43
1311.00	39917.06
1312.00	40127.70
1313.00	40054.37
1314.00	40016.92
1315.00	39969.33
1316.00	40007.56
1317.00	39808.61
1318.00	39537.11
1319.00	39238.30
1320.00	39353.77
1321.00	39302.28
1322.00	39437.25
1323.00	39301.50
1324.00	39381.07
1325.00	39206.31
1326.00	39081.49
1327.00	38838.07
1328.00	38760.83
1329.00	38744.45
1330.00	38651.61
1331.00	38672.67
1332.00	38525.22
1333.00	38830.27
1334.00	39073.68
1335.00	39524.63
1336.00	39673.64
1337.00	39736.06
1338.00	39792.23
1339.00	39654.92
1340.00	39439.59
1341.00	39304.62
1342.00	39203.97
1343.00	39271.85
1344.00	39159.50
1345.00	39186.03
1346.00	39027.65
1347.00	39143.90
1348.00	38885.66
1349.00	38757.71
1350.00	38476.07
1351.00	38682.03
1352.00	38724.16
1353.00	38650.83
1354.00	38476.85
1355.00	38325.49
1356.00	38204.56
1357.00	38273.22
1358.00	38472.95
1359.00	38646.93
1360.00	38557.21
1361.00	38593.87
1362.00	38570.47
1363.00	38615.72
1364.00	38280.24
1365.00	38165.56
1366.00	37919.02
1367.00	37793.41
1368.00	37662.34
1369.00	37680.28
1370.00	37632.69
1371.00	37415.80
1372.00	37089.69
1373.00	37139.62
1374.00	37149.76
1375.00	37187.99
1376.00	37073.31
1377.00	36951.60
1378.00	36957.84
1379.00	36776.06
1380.00	36643.43
1381.00	36357.10
1382.00	36212.77
1383.00	36190.92
1384.00	36237.73
1385.00	36359.44
1386.00	36562.29
1387.00	36762.01
1388.00	36815.85
1389.00	36665.27
1390.00	36570.09
1391.00	36465.55
1392.00	36427.32
1393.00	36157.38
1394.00	35995.10
1395.00	35869.49
1396.00	35839.06
1397.00	35737.64
1398.00	35808.64
1399.00	35812.54
1400.00	35792.25
1401.00	35524.65
1402.00	35355.35
1403.00	35110.38
1404.00	34946.54
1405.00	34788.16
1406.00	34786.60
1407.00	34815.47
1408.00	35019.10
1409.00	35325.71
1410.00	35436.49
1411.00	35346.77
1412.00	35231.30
1413.00	35087.75
1414.00	35054.20
1415.00	34925.47
1416.00	34831.85
1417.00	34467.51
1418.00	34029.83
1419.00	33544.56
1420.00	33326.89
1421.00	32996.87
1422.00	33228.59
1423.00	33155.25
1424.00	33544.56
1425.00	33461.08
1426.00	33704.49
1427.00	33770.03
1428.00	33920.60
1429.00	33992.38
1430.00	34092.24
1431.00	34190.55
1432.00	34373.11
1433.00	34401.19
1434.00	34428.50
1435.00	34171.04
1436.00	34066.50
1437.00	33823.86
1438.00	33828.54
1439.00	33559.38
1440.00	33421.29
1441.00	33340.93
1442.00	33709.96
1443.00	33952.59
1444.00	34090.68
1445.00	34015.01
1446.00	34036.85
1447.00	34039.19
1448.00	33922.16
1449.00	33820.74
1450.00	33867.55
1451.00	33842.59
1452.00	33737.26
1453.00	33392.42
1454.00	33146.67
1455.00	32843.18
1456.00	32600.54
1457.00	32496.78
1458.00	32736.29
1459.00	32915.73
1460.00	32799.49
1461.00	32494.44
1462.00	32280.67
1463.00	32247.12
1464.00	32165.20
1465.00	32063.78
1466.00	31939.73
1467.00	31821.92
1468.00	31725.96
1469.00	31760.29
1470.00	31771.99
1471.00	31786.04
1472.00	31584.75
1473.00	31415.45
1474.00	31135.37
1475.00	30925.50
1476.00	30876.35
1477.00	30842.80
1478.00	30918.48
1479.00	30701.59
1480.00	30662.58
1481.00	30463.63
1482.00	30401.22
1483.00	30340.36
1484.00	30340.36
1485.00	30463.63
1486.00	30576.76
1487.00	30597.82
1488.00	30533.85
1489.00	30583.00
1490.00	30628.25
1491.00	30577.54
1492.00	30264.69
1493.00	29917.51
1494.00	29457.20
1495.00	28930.58
1496.00	28385.24
1497.00	28024.01
1498.00	27887.48
1499.00	27935.85
1500.00	28226.86
1501.00	28595.89
1502.00	28943.06
1503.00	29023.42
1504.00	28964.91
1505.00	29059.31
1506.00	29007.82
1507.00	28925.12
1508.00	28547.51
1509.00	28389.92
1510.00	28098.91
1511.00	27947.56
1512.00	27917.91
1513.00	28014.65
1514.00	28192.53
1515.00	28348.57
1516.00	28542.83
1517.00	28637.23
1518.00	28661.42
1519.00	28505.38
1520.00	28360.27
1521.00	28010.75
1522.00	27826.63
1523.00	27672.15
1524.00	27740.03
1525.00	27882.80
1526.00	28040.40
1527.00	28330.62
1528.00	28569.36
1529.00	28772.21
1530.00	28716.03
1531.00	28730.86
1532.00	28605.25
1533.00	28453.11
1534.00	28270.55
1535.00	28158.20
1536.00	28178.49
1537.00	28063.02
1538.00	28057.56
1539.00	27995.15
1540.00	28038.84
1541.00	28119.20
1542.00	28257.29
1543.00	28295.52
1544.00	28384.46
1545.00	28440.63
1546.00	28492.90
1547.00	28222.18
1548.00	28007.63
1549.00	27842.23
1550.00	27914.01
1551.00	27829.75
1552.00	27602.72
1553.00	27496.61
1554.00	27626.90
1555.00	27786.06
1556.00	27924.15
1557.00	27860.96
1558.00	28014.65
1559.00	28114.52
1560.00	28134.02
1561.00	28163.67
1562.00	27998.27
1563.00	28102.81
1564.00	27931.95
1565.00	27993.59
1566.00	27794.64
1567.00	27878.90
1568.00	27757.97
1569.00	27782.16
1570.00	27710.38
1571.00	27687.76
1572.00	27537.18
1573.00	27341.36
1574.00	27199.37
1575.00	26995.74
1576.00	26876.37
1577.00	26826.44
1578.00	26846.72
1579.00	26784.31
1580.00	26600.97
1581.00	26622.03
1582.00	26648.56
1583.00	26595.51
1584.00	26374.72
1585.00	26249.11
1586.00	26136.76
1587.00	26103.21
1588.00	26148.46
1589.00	26215.56
1590.00	26263.15
1591.00	26229.60
1592.00	26210.10
1593.00	26265.49
1594.00	26285.00
1595.00	26171.09
1596.00	26135.20
1597.00	25978.39
1598.00	26041.58
1599.00	26036.12
1600.00	26134.42
1601.00	26164.07
1602.00	26080.59
1603.00	25925.33
1604.00	25873.84
1605.00	25809.09
1606.00	25861.36
1607.00	25832.49
1608.00	25877.74
1609.00	25904.27
1610.00	25760.72
1611.00	25709.22
1612.00	25477.51
1613.00	25496.24
1614.00	25224.73
1615.00	25219.27
1616.00	25096.00
1617.00	25102.25
1618.00	25017.21
1619.00	24822.94
1620.00	24747.26
1621.00	24645.06
1622.00	24784.71
1623.00	24768.33
1624.00	24730.88
1625.00	24580.31
1626.00	24586.55
1627.00	24461.72
1628.00	24250.29
1629.00	24029.50
1630.00	24059.15
1631.00	24108.30
1632.00	24139.51
1633.00	24031.84
1634.00	24010.78
1635.00	23924.96
1636.00	23936.66
1637.00	24027.16
1638.00	23990.49
1639.00	23791.55
1640.00	23543.45
1641.00	23299.25
1642.00	23005.13
1643.00	22776.53
1644.00	22708.66
1645.00	22994.20
1646.00	23286.77
1647.00	23634.73
1648.00	23941.34
1649.00	24125.46
1650.00	24183.98
1651.00	24183.98
1652.00	24261.99
1653.00	24337.67
1654.00	24190.22
1655.00	23871.12
1656.00	23497.42
1657.00	23342.16
1658.00	23172.08
1659.00	23064.42
1660.00	22973.92
1661.00	23226.70
1662.00	23506.00
1663.00	23626.15
1664.00	23655.79
1665.00	23608.20
1666.00	23718.21
1667.00	23655.79
1668.00	23612.10
1669.00	23499.76
1670.00	23505.22
1671.00	23445.93
1672.00	23449.83
1673.00	23332.02
1674.00	23381.17
1675.00	23342.16
1676.00	23196.27
1677.00	22891.22
1678.00	22554.18
1679.00	22512.83
1680.00	22476.94
1681.00	22416.09
1682.00	22167.99
1683.00	21932.38
1684.00	21606.27
1685.00	21245.82
1686.00	20517.92
1687.00	19704.97
1688.00	18826.49
1689.00	18309.23
1690.00	18116.53
1691.00	18242.92
1692.00	18576.83
1693.00	19000.47
1694.00	19608.23
1695.00	20117.68
1696.00	20733.25
1697.00	21035.17
1698.00	21493.92
1699.00	21622.65
1700.00	21770.10
1701.00	21859.82
1702.00	22008.06
1703.00	22115.72
1704.00	22115.72
1705.00	22154.73
1706.00	22125.08
1707.00	22025.22
1708.00	21973.73
1709.00	21923.02
1710.00	21940.96
1711.00	21806.77
1712.00	21763.08
1713.00	21724.85
1714.00	21734.99
1715.00	21887.91
1716.00	21974.51
1717.00	22064.23
1718.00	21961.25
1719.00	21905.07
1720.00	21912.88
1721.00	21768.54
1722.00	21779.46
1723.00	21662.44
1724.00	21770.10
1725.00	21702.23
1726.00	21809.11
1727.00	21743.58
1728.00	21701.45
1729.00	21582.08
1730.00	21645.27
1731.00	21685.06
1732.00	21656.20
1733.00	21539.95
1734.00	21553.21
1735.00	21532.93
1736.00	21372.21
1737.00	21145.96
1738.00	20926.73
1739.00	20919.71
1740.00	20768.35
1741.00	20734.81
1742.00	20629.48
1743.00	20658.35
1744.00	20731.69
1745.00	20675.51
1746.00	20755.87
1747.00	20702.04
1748.00	20805.02
1749.00	20717.64
1750.00	20755.09
1751.00	20684.87
1752.00	20645.09
1753.00	20540.54
1754.00	20574.87
1755.00	20509.33
1756.00	20434.44
1757.00	20330.67
1758.00	20226.91
1759.00	20267.48
1760.00	20020.16
1761.00	20031.08
1762.00	19921.08
1763.00	19968.67
1764.00	19853.98
1765.00	19790.79
1766.00	19780.65
1767.00	19799.37
1768.00	19682.34
1769.00	19555.18
1770.00	19454.53
1771.00	19507.58
1772.00	19477.94
1773.00	19555.18
1774.00	19591.06
1775.00	19632.41
1776.00	19707.31
1777.00	19645.68
1778.00	19759.58
1779.00	19578.58
1780.00	19508.37
1781.00	19371.83
1782.00	19371.83
1783.00	19226.72
1784.00	19133.88
1785.00	19113.59
1786.00	19087.07
1787.00	19083.17
1788.00	18899.83
1789.00	18911.53
1790.00	18826.49
1791.00	18834.29
1792.00	18604.92
1793.00	18597.90
1794.00	18575.27
1795.00	18629.88
1796.00	18439.52
1797.00	18207.81
1798.00	18082.20
1799.00	17987.02
1800.00	17891.05
1801.00	17815.38
1802.00	17883.25
1803.00	18000.28
1804.00	18067.38
1805.00	18063.47
1806.00	18082.20
1807.00	18025.25
1808.00	18040.07
1809.00	17980.00
1810.00	18040.85
1811.00	17942.55
1812.00	17863.75
1813.00	17635.16
1814.00	17505.65
1815.00	17444.79
1816.00	17405.78
1817.00	17386.28
1818.00	17368.34
1819.00	17419.83
1820.00	17309.04
1821.00	17181.87
1822.00	17047.68
1823.00	17137.40
1824.00	17126.48
1825.00	17204.50
1826.00	17138.96
1827.00	17135.06
1828.00	17021.94
1829.00	17074.21
1830.00	16911.15
1831.00	16890.09
1832.00	16730.93
1833.00	16777.74
1834.00	16743.41
1835.00	16710.64
1836.00	16513.26
1837.00	16391.55
1838.00	16304.17
1839.00	16430.56
1840.00	16476.59
1841.00	16448.50
1842.00	16391.55
1843.00	16198.85
1844.00	16153.60
1845.00	16032.67
1846.00	15980.40
1847.00	15879.75
1848.00	15883.66
1849.00	15879.75
1850.00	15813.44
1851.00	15686.27
1852.00	15658.18
1853.00	15635.56
1854.00	15495.91
1855.00	15440.51
1856.00	15396.82
1857.00	15524.77
1858.00	15522.43
1859.00	15430.37
1860.00	15413.99
1861.00	15289.94
1862.00	15193.98
1863.00	15065.25
1864.00	15037.94
1865.00	14964.61
1866.00	14881.13
1867.00	14853.04
1868.00	14914.67
1869.00	14870.20
1870.00	14810.13
1871.00	14682.18
1872.00	14612.74
1873.00	14569.05
1874.00	14528.49
1875.00	14482.45
1876.00	14445.01
1877.00	14401.32
1878.00	14265.57
1879.00	14106.41
1880.00	14079.88
1881.00	14073.64
1882.00	14107.19
1883.00	14010.45
1884.00	13976.12
1885.00	13824.76
1886.00	13731.14
1887.00	13597.73
1888.00	13530.64
1889.00	13490.07
1890.00	13550.92
1891.00	13482.27
1892.00	13405.81
1893.00	13357.44
1894.00	13427.65
1895.00	13496.31
1896.00	13511.91
1897.00	13372.26
1898.00	13269.28
1899.00	13092.18
1900.00	13066.43
1901.00	12974.37
1902.00	12836.28
1903.00	12645.13
1904.00	12260.51
1905.00	11666.01
1906.00	10771.15
1907.00	9874.72
1908.00	9079.72
1909.00	8482.10
1910.00	8082.65
1911.00	7907.89
1912.00	7971.08
1913.00	8202.80
1914.00	8499.27
1915.00	8889.35
1916.00	9306.75
1917.00	9642.23
1918.00	9982.38
1919.00	10086.93
1920.00	10114.23
1921.00	9897.35
1922.00	9756.13
1923.00	9622.72
1924.00	9540.02
1925.00	9433.14
1926.00	9401.15
1927.00	9384.77
1928.00	9476.05
1929.00	9556.41
1930.00	9670.31
1931.00	9722.59
1932.00	9792.80
1933.00	9849.75
1934.00	9859.12
1935.00	9937.91
1936.00	9910.61
1937.00	10006.57
1938.00	9983.95
1939.00	10057.28
1940.00	10082.25
1941.00	10047.14
1942.00	10113.45
1943.00	10133.74
1944.00	10188.35
1945.00	10199.27
1946.00	10175.09
1947.00	10193.81
1948.00	10139.98
1949.00	10090.05
1950.00	10039.34
1951.00	9988.63
1952.00	9943.38
1953.00	9930.89
1954.00	9909.05
1955.00	9853.66
1956.00	9833.37
1957.00	9689.04
1958.00	9614.14
1959.00	9483.07
1960.00	9423.78
1961.00	9367.60
1962.00	9358.24
1963.00	9359.80
1964.00	9313.77
1965.00	9242.78
1966.00	9201.43
1967.00	9213.13
1968.00	9218.59
1969.00	9182.70
1970.00	9135.11
1971.00	9053.97
1972.00	9077.38
1973.00	9101.56
1974.00	9115.61
1975.00	9080.50
1976.00	9021.98
1977.00	9024.33
1978.00	9057.87
1979.00	9124.97
1980.00	9179.58
1981.00	9228.73
1982.00	9213.13
1983.00	9144.47
1984.00	9074.26
1985.00	9074.26
1986.00	9105.46
1987.00	9063.33
1988.00	8936.17
1989.00	8714.59
1990.00	8616.29
1991.00	8528.91
1992.00	8482.88
1993.00	8371.32
1994.00	8339.33
1995.00	8353.37
1996.00	8269.11
1997.00	8129.46
1998.00	8041.30
1999.00	8031.16
2000.00	8010.87
2001.00	7952.36
2002.00	7899.31
2003.00	7932.08
2004.00	7935.20
2005.00	7905.55
2006.00	7896.97
2007.00	7841.57
2008.00	7758.10
2009.00	7642.63
2010.00	7598.16
2011.00	7604.40
2012.00	7554.47
2013.00	7551.35
2014.00	7575.53
2015.00	7597.38
2016.00	7591.14
2017.00	7450.71
2018.00	7404.67
2019.00	7290.77
2020.00	7304.03
2021.00	7254.10
2022.00	7172.96
2023.00	7126.15
2024.00	7077.78
2025.00	7116.79
2026.00	7107.43
2027.00	7097.28
2028.00	7138.63
2029.00	7200.27
2030.00	7250.20
2031.00	7222.89
2032.00	7208.07
2033.00	7158.14
2034.00	7156.58
2035.00	7058.28
2036.00	6976.36
2037.00	6935.01
2038.00	6952.17
2039.00	6996.64
2040.00	6968.56
2041.00	6984.16
2042.00	6963.87
2043.00	6896.00
2044.00	6793.80
2045.00	6721.24
2046.00	6665.85
2047.00	6595.63
>>>>>End Processed Spectral Data<<<<<
