SpectraSuite Data File
++++++++++++++++++++++++++++++++++++
Date: Thu Nov 16 13:32:54 EST 2017
User: cheriyan
Dark Spectrum Present: No
Reference Spectrum Present: No
Number of Sampled Component Spectra: 1
Spectrometers: USB2+H05261
Integration Time (usec): 90000 (USB2+H05261)
Spectra Averaged: 1 (USB2+H05261)
Boxcar Smoothing: 1 (USB2+H05261)
Correct for Electrical Dark: No (USB2+H05261)
Strobe/Lamp Enabled: No (USB2+H05261)
Correct for Detector Non-linearity: No (USB2+H05261)
Correct for Stray Light: No (USB2+H05261)
Number of Pixels in Processed Spectrum: 2048
>>>>>Begin Processed Spectral Data<<<<<
0.00	334.70
1.00	334.70
2.00	315.97
3.00	301.15
4.00	259.80
5.00	236.39
6.00	228.59
7.00	237.17
8.00	254.34
9.00	262.92
10.00	266.04
11.00	279.30
12.00	287.11
13.00	288.67
14.00	265.26
15.00	252.78
16.00	259.02
17.00	273.84
18.00	269.94
19.00	265.26
20.00	283.98
21.00	294.13
22.00	322.99
23.00	746.63
24.00	2398.27
25.00	4162.25
26.00	5518.20
27.00	5632.11
28.00	5496.36
29.00	5341.10
30.00	5129.67
31.00	5081.30
32.00	5080.52
33.00	5166.34
34.00	5170.24
35.00	5048.54
36.00	4831.65
37.00	4660.79
38.00	4572.63
39.00	4695.11
40.00	4805.12
41.00	4865.97
42.00	4770.79
43.00	4703.70
44.00	4752.85
45.00	4971.30
46.00	5273.23
47.00	5537.71
48.00	5724.95
49.00	5696.86
50.00	5707.79
51.00	5717.15
52.00	5759.28
53.00	5817.79
54.00	5884.89
55.00	6140.01
56.00	6407.61
57.00	6715.78
58.00	6896.00
59.00	7092.60
60.00	7150.34
61.00	7215.87
62.00	7111.33
63.00	6963.09
64.00	6705.63
65.00	6474.70
66.00	6218.80
67.00	6069.79
68.00	5892.69
69.00	5926.24
70.00	6089.29
71.00	6335.05
72.00	6582.37
73.00	6731.38
74.00	6871.81
75.00	6793.01
76.00	6624.50
77.00	6351.43
78.00	6065.89
79.00	5834.18
80.00	5633.67
81.00	5447.21
82.00	5181.95
83.00	4929.95
84.00	4738.02
85.00	4588.23
86.00	4464.18
87.00	4419.71
88.00	4449.36
89.00	4544.54
90.00	4823.06
91.00	5198.33
92.00	5660.98
93.00	5964.47
94.00	6257.81
95.00	6421.65
96.00	6518.39
97.00	6447.40
98.00	6302.28
99.00	6122.06
100.00	6024.54
101.00	6101.78
102.00	6282.00
103.00	6475.48
104.00	6535.56
105.00	6479.38
106.00	6408.39
107.00	6353.77
108.00	6367.04
109.00	6455.20
110.00	6558.18
111.00	6632.30
112.00	6614.35
113.00	6548.04
114.00	6550.38
115.00	6695.49
116.00	6997.42
117.00	7382.83
118.00	7722.99
119.00	8015.55
120.00	8260.53
121.00	8308.90
122.00	8326.07
123.00	8315.92
124.00	8429.05
125.00	8609.27
126.00	8860.49
127.00	9195.18
128.00	9425.34
129.00	9380.87
130.00	9207.67
131.00	8904.18
132.00	8584.30
133.00	8166.91
134.00	7662.91
135.00	7052.03
136.00	6242.21
137.00	5447.21
138.00	4862.07
139.00	4656.11
140.00	4855.83
141.00	5393.37
142.00	6120.50
143.00	6869.47
144.00	7516.24
145.00	8184.07
146.00	8825.38
147.00	9397.25
148.00	9751.45
149.00	9941.82
150.00	9923.09
151.00	9691.38
152.00	9236.53
153.00	8479.76
154.00	7559.93
155.00	6634.64
156.00	5994.11
157.00	5778.78
158.00	6053.41
159.00	6815.64
160.00	7869.66
161.00	9001.70
162.00	10076.79
163.00	10897.53
164.00	11556.00
165.00	12056.88
166.00	12542.93
167.00	12741.10
168.00	13044.59
169.00	13202.96
170.00	13420.63
171.00	13429.21
172.00	13544.68
173.00	13784.20
174.00	13939.45
175.00	13993.28
176.00	14019.81
177.00	14167.26
178.00	14480.11
179.00	14721.19
180.00	14948.22
181.00	14990.35
182.00	15072.27
183.00	15141.71
184.00	15394.48
185.00	15460.80
186.00	15390.58
187.00	15255.61
188.00	15122.20
189.00	14920.92
190.00	14675.94
191.00	14762.54
192.00	15086.31
193.00	15435.05
194.00	15522.43
195.00	15371.08
196.00	15105.04
197.00	14952.90
198.00	15072.27
199.00	15245.47
200.00	15373.42
201.00	15333.63
202.00	15296.18
203.00	15195.54
204.00	15066.03
205.00	14881.13
206.00	14726.65
207.00	14726.65
208.00	14955.24
209.00	15115.18
210.00	15353.13
211.00	15240.01
212.00	15314.13
213.00	15389.02
214.00	15692.51
215.00	15935.93
216.00	16186.36
217.00	16602.20
218.00	16945.48
219.00	17191.23
220.00	17220.88
221.00	17251.31
222.00	16986.83
223.00	16318.22
224.00	15643.36
225.00	15042.62
226.00	14917.79
227.00	15129.22
228.00	15618.39
229.00	16156.72
230.00	16666.95
231.00	17266.13
232.00	17752.96
233.00	18092.34
234.00	18225.75
235.00	18381.79
236.00	18493.35
237.00	18498.81
238.00	18437.96
239.00	18259.30
240.00	18104.04
241.00	17987.80
242.00	18026.81
243.00	18137.59
244.00	18394.27
245.00	18558.89
246.00	18632.22
247.00	18544.84
248.00	18523.78
249.00	18590.88
250.00	18818.69
251.00	18924.01
252.00	19041.04
253.00	18997.35
254.00	19122.96
255.00	19289.92
256.00	19626.17
257.00	19978.03
258.00	20284.64
259.00	20393.09
260.00	20275.28
261.00	19996.76
262.00	19561.42
263.00	19189.27
264.00	19073.03
265.00	19156.50
266.00	19278.99
267.00	19435.81
268.00	19584.04
269.00	19607.45
270.00	19597.31
271.00	19668.30
272.00	20004.56
273.00	20328.33
274.00	20368.90
275.00	20159.03
276.00	19903.14
277.00	19654.26
278.00	19563.76
279.00	19653.48
280.00	20162.15
281.00	20746.51
282.00	21157.66
283.00	21451.79
284.00	21546.97
285.00	21500.16
286.00	21478.32
287.00	21252.84
288.00	21105.39
289.00	20570.19
290.00	20060.73
291.00	19490.42
292.00	19313.32
293.00	19538.01
294.00	19964.77
295.00	20180.88
296.00	20295.57
297.00	20127.83
298.00	20293.22
299.00	20400.11
300.00	20719.20
301.00	20483.59
302.00	20295.57
303.00	20155.91
304.00	20200.38
305.00	20299.47
306.00	20116.90
307.00	19904.70
308.00	19699.51
309.00	19705.75
310.00	19950.73
311.00	20205.06
312.00	20252.66
313.00	20104.42
314.00	19512.27
315.00	18963.02
316.00	18613.50
317.00	18743.79
318.00	19091.75
319.00	19358.57
320.00	19693.27
321.00	19783.77
322.00	19740.86
323.00	19395.24
324.00	19190.05
325.00	19112.03
326.00	19087.85
327.00	18936.49
328.00	18288.95
329.00	17493.94
330.00	16649.79
331.00	15881.32
332.00	15176.81
333.00	14599.48
334.00	14469.97
335.00	14668.92
336.00	15275.90
337.00	16403.25
338.00	18143.83
339.00	20038.89
340.00	21634.35
341.00	22204.66
342.00	21834.08
343.00	21164.68
344.00	20645.09
345.00	20764.45
346.00	21231.00
347.00	21834.08
348.00	22211.68
349.00	21967.49
350.00	21202.91
351.00	20274.50
352.00	19612.91
353.00	19562.20
354.00	19988.96
355.00	20631.82
356.00	21182.63
357.00	21734.99
358.00	21879.33
359.00	22231.19
360.00	22366.94
361.00	23012.93
362.00	23415.50
363.00	23777.50
364.00	24024.82
365.00	24114.54
366.00	24179.29
367.00	23902.33
368.00	23573.10
369.00	23079.24
370.00	22829.59
371.00	22631.42
372.00	22501.91
373.00	21971.39
374.00	21356.61
375.00	20844.81
376.00	20782.40
377.00	20983.68
378.00	21452.57
379.00	21950.32
380.00	22559.64
381.00	23270.39
382.00	23726.01
383.00	23992.05
384.00	23757.22
385.00	23507.56
386.00	23387.41
387.00	23495.86
388.00	23921.84
389.00	24484.34
390.00	25126.43
391.00	25508.72
392.00	25828.59
393.00	26254.57
394.00	26688.35
395.00	26918.50
396.00	26990.28
397.00	27150.99
398.00	27402.99
399.00	27624.56
400.00	27505.98
401.00	27451.36
402.00	27165.82
403.00	27352.28
404.00	27641.73
405.00	27987.35
406.00	28165.23
407.00	27973.30
408.00	27665.13
409.00	27553.57
410.00	27622.22
411.00	27778.26
412.00	27503.64
413.00	26949.71
414.00	26301.38
415.00	25763.06
416.00	25561.77
417.00	25730.29
418.00	26161.73
419.00	26551.82
420.00	26927.86
421.00	27380.37
422.00	27832.87
423.00	28166.79
424.00	28428.15
425.00	28594.32
426.00	28697.31
427.00	28453.89
428.00	28258.07
429.00	28151.96
430.00	28179.27
431.00	28091.11
432.00	27980.32
433.00	27989.69
434.00	28099.69
435.00	28331.40
436.00	28472.62
437.00	28854.90
438.00	29081.94
439.00	29472.81
440.00	29972.90
441.00	30415.26
442.00	30669.60
443.00	30606.41
444.00	30344.27
445.00	30209.29
446.00	29946.37
447.00	29944.03
448.00	29852.75
449.00	29550.82
450.00	29268.40
451.00	28717.59
452.00	28419.56
453.00	27721.30
454.00	27542.64
455.00	27395.19
456.00	27866.42
457.00	28223.74
458.00	28657.52
459.00	28993.00
460.00	29325.35
461.00	29430.68
462.00	29455.64
463.00	29206.76
464.00	29181.80
465.00	29028.88
466.00	29059.31
467.00	29328.47
468.00	29515.72
469.00	30022.83
470.00	30281.85
471.00	30757.76
472.00	30784.29
473.00	30703.93
474.00	30756.20
475.00	30903.65
476.00	31197.00
477.00	31388.92
478.00	31442.76
479.00	31588.65
480.00	31101.04
481.00	30887.27
482.00	30358.31
483.00	30134.40
484.00	30148.44
485.00	30302.92
486.00	30689.10
487.00	30693.79
488.00	30586.12
489.00	30533.07
490.00	30441.01
491.00	30423.06
492.00	30490.16
493.00	30699.25
494.00	30877.91
495.00	31030.82
496.00	31177.50
497.00	31597.23
498.00	31852.35
499.00	32055.20
500.00	31963.14
501.00	32018.53
502.00	32176.12
503.00	32261.94
504.00	32357.91
505.00	32277.55
506.00	32414.86
507.00	32607.56
508.00	32684.02
509.00	32788.56
510.00	32695.72
511.00	32570.11
512.00	32438.26
513.00	32175.34
514.00	32038.81
515.00	31839.09
516.00	31706.46
517.00	31564.46
518.00	31320.27
519.00	31076.07
520.00	31211.82
521.00	31409.21
522.00	31502.05
523.00	31719.72
524.00	31878.10
525.00	32229.96
526.00	31853.91
527.00	31582.41
528.00	30991.81
529.00	30686.76
530.00	30435.55
531.00	30543.99
532.00	30770.24
533.00	31005.08
534.00	31166.57
535.00	31214.94
536.00	31067.49
537.00	31006.64
538.00	31081.53
539.00	31318.71
540.00	31469.28
541.00	31515.31
542.00	31631.56
543.00	31724.40
544.00	31659.65
545.00	31486.45
546.00	31213.38
547.00	31245.37
548.00	31086.22
549.00	31042.53
550.00	30744.50
551.00	30877.13
552.00	30877.91
553.00	31234.45
554.00	31470.84
555.00	31992.78
556.00	32342.30
557.00	32852.54
558.00	33411.93
559.00	33884.72
560.00	34121.89
561.00	34003.30
562.00	33589.81
563.00	33138.08
564.00	32707.43
565.00	32782.32
566.00	32992.97
567.00	33233.27
568.00	33326.89
569.00	33195.82
570.00	33583.57
571.00	34111.75
572.00	34650.85
573.00	34660.21
574.00	34555.67
575.00	34558.01
576.00	34888.81
577.00	34789.72
578.00	34820.15
579.00	34382.47
580.00	34268.56
581.00	33982.24
582.00	34082.10
583.00	34146.08
584.00	34448.78
585.00	34826.39
586.00	35492.66
587.00	35842.96
588.00	36154.26
589.00	36495.97
590.00	36902.45
591.00	37421.27
592.00	37692.77
593.00	37839.44
594.00	37692.77
595.00	37482.12
596.00	37453.25
597.00	37660.78
598.00	38268.54
599.00	39040.14
600.00	39544.13
601.00	39655.70
602.00	39473.13
603.00	39403.70
604.00	39667.40
605.00	40179.20
606.00	40355.52
607.00	40379.70
608.00	40322.75
609.00	40684.75
610.00	40957.03
611.00	41243.36
612.00	41584.30
613.00	42008.72
614.00	42202.20
615.00	42147.59
616.00	41996.23
617.00	42128.86
618.00	42329.37
619.00	42396.46
620.00	42376.96
621.00	42622.72
622.00	43127.49
623.00	43615.10
624.00	43536.30
625.00	43200.83
626.00	42905.14
627.00	42850.53
628.00	43189.91
629.00	43633.05
630.00	44155.77
631.00	44044.98
632.00	43135.29
633.00	42245.89
634.00	40985.12
635.00	39504.34
636.00	37675.60
637.00	36787.76
638.00	37150.54
639.00	38341.10
640.00	39558.95
641.00	40750.29
642.00	41441.53
643.00	42345.75
644.00	43320.98
645.00	44227.54
646.00	44924.24
647.00	45407.95
648.00	46153.02
649.00	46579.00
650.00	46422.19
651.00	46116.36
652.00	45639.67
653.00	45761.37
654.00	46213.10
655.00	47256.20
656.00	48259.51
657.00	49097.42
658.00	49554.60
659.00	49904.90
660.00	49988.38
661.00	50021.93
662.00	49871.35
663.00	49681.77
664.00	49611.56
665.00	49627.94
666.00	49751.99
667.00	49465.66
668.00	48839.96
669.00	48092.55
670.00	47723.52
671.00	47820.27
672.00	48472.49
673.00	49438.36
674.00	50501.74
675.00	51114.96
676.00	51351.35
677.00	51173.47
678.00	50870.76
679.00	50663.24
680.00	50775.58
681.00	51116.52
682.00	51659.52
683.00	52200.19
684.00	52798.58
685.00	53206.62
686.00	53542.88
687.00	53619.33
688.00	53397.76
689.00	52955.40
690.00	52545.03
691.00	52459.99
692.00	52605.88
693.00	52950.72
694.00	53344.71
695.00	53620.11
696.00	53660.68
697.00	53637.28
698.00	53837.00
699.00	54020.34
700.00	54292.63
701.00	54281.70
702.00	54174.82
703.00	53762.11
704.00	53275.27
705.00	52831.35
706.00	52651.13
707.00	52745.53
708.00	53264.35
709.00	53764.45
710.00	54265.32
711.00	54522.00
712.00	54605.48
713.00	54598.46
714.00	54374.55
715.00	54031.27
716.00	53485.14
717.00	53194.14
718.00	52927.31
719.00	52861.00
720.00	52809.51
721.00	52817.31
722.00	52816.53
723.00	52742.41
724.00	52704.18
725.00	52605.88
726.00	52663.61
727.00	53011.57
728.00	53372.80
729.00	53613.87
730.00	53790.97
731.00	54030.49
732.00	54274.68
733.00	54377.67
734.00	54294.19
735.00	53957.93
736.00	53433.65
737.00	52940.58
738.00	52696.38
739.00	52831.35
740.00	53253.43
741.00	53861.19
742.00	54142.83
743.00	54348.02
744.00	54461.93
745.00	54880.10
746.00	55131.32
747.00	55520.63
748.00	55708.65
749.00	55966.11
750.00	55821.00
751.00	55603.33
752.00	55405.94
753.00	55223.38
754.00	55182.81
755.00	54995.57
756.00	54955.78
757.00	54733.43
758.00	54557.11
759.00	54187.30
760.00	53944.67
761.00	53899.42
762.00	54133.47
763.00	54448.66
764.00	54748.25
765.00	55217.92
766.00	55676.66
767.00	56001.22
768.00	55970.79
769.00	55803.83
770.00	55536.23
771.00	55314.66
772.00	55283.45
773.00	55280.33
774.00	55434.03
775.00	55425.45
776.00	55437.15
777.00	55468.36
778.00	55550.27
779.00	55861.57
780.00	56075.33
781.00	56451.38
782.00	56562.17
783.00	56629.26
784.00	56372.58
785.00	56112.00
786.00	55706.31
787.00	55412.96
788.00	55205.44
789.00	55210.12
790.00	55199.19
791.00	55318.56
792.00	55292.82
793.00	55210.90
794.00	55022.09
795.00	54694.42
796.00	54752.93
797.00	54715.48
798.00	54909.75
799.00	54919.89
800.00	55077.49
801.00	55224.94
802.00	55416.08
803.00	55419.98
804.00	55707.09
805.00	55891.99
806.00	56086.26
807.00	55652.48
808.00	54894.92
809.00	53762.89
810.00	52482.61
811.00	51075.95
812.00	49869.01
813.00	49297.92
814.00	49796.46
815.00	51109.50
816.00	52587.16
817.00	53382.94
818.00	53480.46
819.00	52908.59
820.00	52205.65
821.00	51925.56
822.00	52211.89
823.00	52825.11
824.00	53402.44
825.00	53872.89
826.00	54304.33
827.00	54782.58
828.00	55173.45
829.00	55438.71
830.00	55627.51
831.00	55642.34
832.00	55675.88
833.00	55308.42
834.00	55292.04
835.00	55257.71
836.00	55558.08
837.00	55693.05
838.00	55977.03
839.00	56120.59
840.00	56238.39
841.00	56178.32
842.00	56183.00
843.00	55977.81
844.00	55676.66
845.00	55264.73
846.00	54994.79
847.00	54909.75
848.00	54980.74
849.00	55253.03
850.00	55555.74
851.00	55973.91
852.00	56316.41
853.00	56753.31
854.00	56946.79
855.00	57084.89
856.00	56950.70
857.00	56771.25
858.00	56591.03
859.00	56389.75
860.00	56332.79
861.00	56324.21
862.00	56501.31
863.00	56557.49
864.00	56381.95
865.00	55726.60
866.00	54876.98
867.00	53842.46
868.00	53075.55
869.00	52463.89
870.00	52217.35
871.00	52387.43
872.00	52791.56
873.00	53565.50
874.00	54324.61
875.00	55015.85
876.00	55406.72
877.00	55485.52
878.00	55576.80
879.00	55693.05
880.00	56080.02
881.00	56478.69
882.00	56820.41
883.00	56886.72
884.00	56726.78
885.00	56348.40
886.00	55993.42
887.00	55678.22
888.00	55637.65
889.00	55715.67
890.00	55930.22
891.00	56220.45
892.00	56603.52
893.00	56857.85
894.00	56928.85
895.00	56788.42
896.00	56616.78
897.00	56523.16
898.00	56275.06
899.00	56251.66
900.00	55958.31
901.00	55636.09
902.00	55034.58
903.00	54468.17
904.00	53957.93
905.00	53851.83
906.00	53993.82
907.00	54471.29
908.00	54804.42
909.00	55367.71
910.00	55569.00
911.00	55603.33
912.00	55217.92
913.00	55020.53
914.00	54957.34
915.00	55184.37
916.00	55274.09
917.00	55450.41
918.00	55608.01
919.00	55841.28
920.00	56146.33
921.00	56462.30
922.00	56714.30
923.00	56514.58
924.00	56069.09
925.00	55672.76
926.00	55296.72
927.00	54861.38
928.00	54331.64
929.00	54103.82
930.00	54120.21
931.00	54436.96
932.00	54853.58
933.00	55223.38
934.00	55448.85
935.00	55398.14
936.00	55341.19
937.00	55384.10
938.00	55338.07
939.00	55298.28
940.00	55158.62
941.00	54982.30
942.00	54749.81
943.00	54411.99
944.00	54228.65
945.00	53949.35
946.00	53827.64
947.00	53638.84
948.00	53560.82
949.00	53356.41
950.00	53251.87
951.00	53130.94
952.00	52966.32
953.00	52978.03
954.00	53212.86
955.00	53628.69
956.00	53923.60
957.00	53971.97
958.00	54114.75
959.00	54209.15
960.00	54243.48
961.00	53968.07
962.00	53879.13
963.00	53831.54
964.00	53943.11
965.00	53814.38
966.00	53798.77
967.00	53825.30
968.00	54005.52
969.00	54213.83
970.00	54519.66
971.00	54873.86
972.00	54960.46
973.00	54665.55
974.00	54485.33
975.00	54400.29
976.00	54461.93
977.00	54479.87
978.00	54323.05
979.00	54361.28
980.00	54049.21
981.00	54294.97
982.00	54230.21
983.00	54306.67
984.00	54125.67
985.00	53993.82
986.00	53863.53
987.00	53740.26
988.00	53828.42
989.00	53833.10
990.00	53720.76
991.00	53443.01
992.00	53203.50
993.00	52960.86
994.00	52988.17
995.00	53146.54
996.00	53478.90
997.00	53699.69
998.00	53982.12
999.00	54184.18
1000.00	54259.08
1001.00	54075.74
1002.00	53893.96
1003.00	53746.50
1004.00	53831.54
1005.00	53812.04
1006.00	53817.50
1007.00	53746.50
1008.00	53776.93
1009.00	53679.41
1010.00	53555.36
1011.00	53333.79
1012.00	53377.48
1013.00	53158.25
1014.00	53187.11
1015.00	53179.31
1016.00	53551.46
1017.00	53860.41
1018.00	54057.79
1019.00	54087.44
1020.00	53814.38
1021.00	53556.14
1022.00	53316.62
1023.00	53060.72
1024.00	52928.09
1025.00	52790.00
1026.00	53003.77
1027.00	53015.47
1028.00	53208.96
1029.00	53201.16
1030.00	53289.32
1031.00	53427.41
1032.00	53519.47
1033.00	53720.76
1034.00	53624.79
1035.00	53656.78
1036.00	53638.06
1037.00	53695.79
1038.00	53642.74
1039.00	53443.01
1040.00	53215.98
1041.00	52991.29
1042.00	52848.52
1043.00	52731.49
1044.00	52700.28
1045.00	52550.49
1046.00	52438.14
1047.00	52112.03
1048.00	51964.57
1049.00	51821.02
1050.00	52013.73
1051.00	52129.19
1052.00	52215.79
1053.00	52257.92
1054.00	52261.82
1055.00	52254.02
1056.00	52016.85
1057.00	51695.41
1058.00	51192.98
1059.00	50674.94
1060.00	50461.17
1061.00	50498.62
1062.00	50750.62
1063.00	50872.32
1064.00	50842.68
1065.00	50799.77
1066.00	50764.66
1067.00	50873.88
1068.00	51001.83
1069.00	51161.77
1070.00	51389.58
1071.00	51732.08
1072.00	52022.31
1073.00	52272.74
1074.00	52143.23
1075.00	51762.51
1076.00	51193.76
1077.00	50821.61
1078.00	50725.65
1079.00	50770.12
1080.00	50815.37
1081.00	50950.34
1082.00	51111.06
1083.00	51391.92
1084.00	51508.95
1085.00	51569.80
1086.00	51448.88
1087.00	51373.98
1088.00	51258.51
1089.00	51135.24
1090.00	50962.82
1091.00	50811.47
1092.00	50691.32
1093.00	50628.13
1094.00	50667.14
1095.00	50743.59
1096.00	50856.72
1097.00	50819.27
1098.00	50692.10
1099.00	50301.23
1100.00	49989.94
1101.00	49607.65
1102.00	49329.13
1103.00	48999.90
1104.00	48949.18
1105.00	49056.85
1106.00	49292.46
1107.00	49592.83
1108.00	49776.95
1109.00	50009.45
1110.00	50161.58
1111.00	50323.08
1112.00	50328.54
1113.00	50218.53
1114.00	49987.60
1115.00	49616.24
1116.00	49334.59
1117.00	49055.29
1118.00	48793.93
1119.00	48360.15
1120.00	48082.41
1121.00	48016.87
1122.00	48172.13
1123.00	48339.08
1124.00	48556.75
1125.00	48577.04
1126.00	48536.47
1127.00	48371.07
1128.00	48166.66
1129.00	47905.30
1130.00	47600.26
1131.00	47150.09
1132.00	46797.45
1133.00	46341.83
1134.00	46227.92
1135.00	46123.38
1136.00	46455.73
1137.00	46732.70
1138.00	47125.13
1139.00	47533.94
1140.00	47760.97
1141.00	47952.12
1142.00	47968.50
1143.00	48009.07
1144.00	48137.80
1145.00	48046.52
1146.00	48100.35
1147.00	47821.83
1148.00	47676.71
1149.00	47615.86
1150.00	47682.17
1151.00	47771.89
1152.00	47669.69
1153.00	47675.93
1154.00	47391.95
1155.00	47190.66
1156.00	46836.46
1157.00	46631.27
1158.00	46227.14
1159.00	45835.49
1160.00	45551.51
1161.00	45513.28
1162.00	45672.43
1163.00	45739.53
1164.00	45691.16
1165.00	45601.44
1166.00	45613.92
1167.00	45726.27
1168.00	45823.79
1169.00	45961.10
1170.00	45993.87
1171.00	45975.14
1172.00	45808.18
1173.00	45693.50
1174.00	45643.57
1175.00	45559.31
1176.00	45368.94
1177.00	44901.62
1178.00	44428.05
1179.00	43940.44
1180.00	43947.46
1181.00	43975.55
1182.00	44367.98
1183.00	44375.78
1184.00	44689.41
1185.00	44755.72
1186.00	45044.39
1187.00	45200.43
1188.00	45257.38
1189.00	45308.87
1190.00	45258.94
1191.00	45417.32
1192.00	45220.71
1193.00	45186.38
1194.00	44928.14
1195.00	44981.98
1196.00	45052.19
1197.00	45130.21
1198.00	45162.98
1199.00	45172.34
1200.00	45315.89
1201.00	45442.28
1202.00	45466.47
1203.00	45659.17
1204.00	45777.76
1205.00	45912.73
1206.00	45723.93
1207.00	45714.56
1208.00	45630.30
1209.00	45659.17
1210.00	45740.31
1211.00	45621.72
1212.00	45554.63
1213.00	45264.40
1214.00	45219.93
1215.00	45121.63
1216.00	45163.76
1217.00	45166.10
1218.00	45135.67
1219.00	45090.42
1220.00	44953.89
1221.00	44761.97
1222.00	44283.72
1223.00	43922.49
1224.00	43555.03
1225.00	43299.13
1226.00	43189.91
1227.00	43257.00
1228.00	43336.58
1229.00	43264.80
1230.00	43336.58
1231.00	43508.22
1232.00	43750.07
1233.00	43924.05
1234.00	43813.27
1235.00	43695.46
1236.00	43466.87
1237.00	43276.51
1238.00	43217.99
1239.00	43100.97
1240.00	43034.65
1241.00	42549.38
1242.00	41859.70
1243.00	40803.34
1244.00	39657.26
1245.00	38418.33
1246.00	37749.72
1247.00	37393.96
1248.00	37029.62
1249.00	36901.67
1250.00	37059.26
1251.00	37791.85
1252.00	38699.98
1253.00	39666.62
1254.00	40430.41
1255.00	40955.47
1256.00	41192.65
1257.00	41460.25
1258.00	41532.03
1259.00	41301.09
1260.00	41133.35
1261.00	40996.04
1262.00	41084.20
1263.00	40985.12
1264.00	40786.18
1265.00	40703.48
1266.00	40772.13
1267.00	40842.35
1268.00	40866.53
1269.00	40948.45
1270.00	40908.66
1271.00	40848.59
1272.00	40773.69
1273.00	40869.65
1274.00	41154.42
1275.00	41237.90
1276.00	41157.54
1277.00	40698.02
1278.00	40314.17
1279.00	40020.04
1280.00	39761.02
1281.00	39525.41
1282.00	39420.86
1283.00	39433.35
1284.00	39533.99
1285.00	39675.20
1286.00	40028.62
1287.00	40233.03
1288.00	40407.01
1289.00	40449.14
1290.00	40544.32
1291.00	40651.98
1292.00	40657.45
1293.00	40551.34
1294.00	40476.44
1295.00	40509.21
1296.00	40586.45
1297.00	40392.97
1298.00	40218.99
1299.00	40118.34
1300.00	40009.90
1301.00	40084.01
1302.00	39870.25
1303.00	39809.39
1304.00	39518.39
1305.00	39520.73
1306.00	39670.52
1307.00	39620.59
1308.00	39754.78
1309.00	39645.55
1310.00	39775.84
1311.00	39833.58
1312.00	39923.30
1313.00	39988.83
1314.00	39800.81
1315.00	39675.20
1316.00	39637.75
1317.00	39618.25
1318.00	39566.76
1319.00	39235.18
1320.00	39149.36
1321.00	39029.21
1322.00	39215.68
1323.00	39054.96
1324.00	39003.47
1325.00	38703.10
1326.00	38481.53
1327.00	38465.92
1328.00	38281.02
1329.00	38291.16
1330.00	38135.91
1331.00	38396.49
1332.00	38628.98
1333.00	38870.84
1334.00	38975.38
1335.00	39072.90
1336.00	39288.23
1337.00	39434.91
1338.00	39529.31
1339.00	39458.31
1340.00	39358.45
1341.00	39348.31
1342.00	39031.55
1343.00	39051.06
1344.00	38944.17
1345.00	39040.92
1346.00	39008.15
1347.00	39043.26
1348.00	39064.32
1349.00	38834.95
1350.00	38679.69
1351.00	38465.14
1352.00	38285.70
1353.00	38133.57
1354.00	38100.80
1355.00	38163.22
1356.00	38068.81
1357.00	38029.02
1358.00	37955.69
1359.00	38163.22
1360.00	38343.44
1361.00	38410.53
1362.00	38256.06
1363.00	37957.25
1364.00	37829.30
1365.00	37759.86
1366.00	37681.06
1367.00	37443.89
1368.00	37219.98
1369.00	37156.00
1370.00	37276.15
1371.00	37196.57
1372.00	37106.85
1373.00	36785.42
1374.00	36776.06
1375.00	36612.22
1376.00	36898.55
1377.00	36834.57
1378.00	36880.60
1379.00	36605.20
1380.00	36345.40
1381.00	36148.01
1382.00	36052.83
1383.00	36078.58
1384.00	36138.65
1385.00	36219.79
1386.00	36397.67
1387.00	36445.26
1388.00	36530.30
1389.00	36516.26
1390.00	36499.09
1391.00	36395.33
1392.00	36167.52
1393.00	35992.76
1394.00	35833.60
1395.00	35691.61
1396.00	35683.81
1397.00	35540.25
1398.00	35662.74
1399.00	35680.69
1400.00	35646.36
1401.00	35403.72
1402.00	34978.53
1403.00	34579.07
1404.00	34270.12
1405.00	34297.43
1406.00	34236.58
1407.00	34661.77
1408.00	34752.27
1409.00	35032.36
1410.00	34947.32
1411.00	35112.72
1412.00	35115.84
1413.00	35094.77
1414.00	34898.95
1415.00	34745.25
1416.00	34418.36
1417.00	34171.04
1418.00	33795.78
1419.00	33371.36
1420.00	33105.32
1421.00	32883.75
1422.00	32941.48
1423.00	32704.31
1424.00	32895.45
1425.00	32985.95
1426.00	33283.20
1427.00	33520.37
1428.00	33468.88
1429.00	33684.21
1430.00	33724.00
1431.00	34066.50
1432.00	34185.08
1433.00	34165.58
1434.00	34135.93
1435.00	34114.87
1436.00	34068.06
1437.00	33770.03
1438.00	33451.72
1439.00	33333.13
1440.00	33324.55
1441.00	33398.66
1442.00	33516.47
1443.00	33613.99
1444.00	33585.13
1445.00	33570.30
1446.00	33600.73
1447.00	33471.22
1448.00	33423.63
1449.00	33440.79
1450.00	33510.23
1451.00	33459.52
1452.00	33351.07
1453.00	33167.73
1454.00	33003.89
1455.00	32743.31
1456.00	32655.15
1457.00	32492.10
1458.00	32588.06
1459.00	32584.94
1460.00	32567.77
1461.00	32436.70
1462.00	32300.17
1463.00	32082.50
1464.00	31811.78
1465.00	31517.65
1466.00	31487.23
1467.00	31485.67
1468.00	31532.48
1469.00	31571.49
1470.00	31542.62
1471.00	31510.63
1472.00	31474.74
1473.00	31407.65
1474.00	31310.13
1475.00	31058.91
1476.00	30817.05
1477.00	30740.60
1478.00	30588.46
1479.00	30518.25
1480.00	30153.90
1481.00	30130.50
1482.00	29974.46
1483.00	30125.04
1484.00	30081.35
1485.00	30292.77
1486.00	30446.47
1487.00	30455.83
1488.00	30438.67
1489.00	30480.02
1490.00	30482.36
1491.00	30543.21
1492.00	30207.73
1493.00	29915.17
1494.00	29284.78
1495.00	28719.93
1496.00	28193.31
1497.00	27766.56
1498.00	27747.83
1499.00	27832.09
1500.00	28098.13
1501.00	28427.37
1502.00	28666.88
1503.00	28753.48
1504.00	28641.14
1505.00	28649.72
1506.00	28550.63
1507.00	28459.35
1508.00	28261.97
1509.00	28211.26
1510.00	28109.83
1511.00	28009.19
1512.00	27953.80
1513.00	28120.76
1514.00	28302.54
1515.00	28499.92
1516.00	28439.85
1517.00	28459.35
1518.00	28485.88
1519.00	28408.64
1520.00	28201.90
1521.00	27827.41
1522.00	27594.14
1523.00	27520.80
1524.00	27630.80
1525.00	27889.82
1526.00	28070.82
1527.00	28160.55
1528.00	28279.13
1529.00	28390.70
1530.00	28560.00
1531.00	28511.63
1532.00	28347.79
1533.00	28213.60
1534.00	27991.25
1535.00	27897.63
1536.00	27822.73
1537.00	27930.39
1538.00	27891.38
1539.00	27766.56
1540.00	27616.76
1541.00	27672.15
1542.00	27790.74
1543.00	27917.91
1544.00	28002.95
1545.00	28052.88
1546.00	28039.62
1547.00	27968.62
1548.00	27924.15
1549.00	27768.12
1550.00	27584.77
1551.00	27339.02
1552.00	27293.77
1553.00	27345.26
1554.00	27468.53
1555.00	27605.06
1556.00	27743.93
1557.00	27809.47
1558.00	27874.22
1559.00	27859.40
1560.00	27840.67
1561.00	27788.40
1562.00	27800.88
1563.00	27804.00
1564.00	27775.14
1565.00	27629.24
1566.00	27732.23
1567.00	27757.97
1568.00	27919.47
1569.00	27735.35
1570.00	27664.35
1571.00	27460.73
1572.00	27402.21
1573.00	27256.32
1574.00	27271.14
1575.00	27011.34
1576.00	26839.70
1577.00	26615.01
1578.00	26615.79
1579.00	26590.05
1580.00	26502.67
1581.00	26504.23
1582.00	26469.90
1583.00	26497.20
1584.00	26361.45
1585.00	26299.04
1586.00	26171.87
1587.00	26024.42
1588.00	25985.41
1589.00	25949.52
1590.00	26124.28
1591.00	26184.35
1592.00	26153.15
1593.00	26128.96
1594.00	26020.52
1595.00	26031.44
1596.00	26012.71
1597.00	26066.55
1598.00	26016.61
1599.00	25894.13
1600.00	25834.05
1601.00	25784.90
1602.00	25734.97
1603.00	25589.86
1604.00	25632.77
1605.00	25654.61
1606.00	25752.13
1607.00	25727.95
1608.00	25719.37
1609.00	25560.21
1610.00	25403.39
1611.00	25342.54
1612.00	25390.13
1613.00	25461.91
1614.00	25507.16
1615.00	25381.55
1616.00	25191.97
1617.00	24968.05
1618.00	24974.30
1619.00	24821.38
1620.00	24557.68
1621.00	24382.14
1622.00	24380.58
1623.00	24496.83
1624.00	24545.20
1625.00	24616.97
1626.00	24570.94
1627.00	24326.75
1628.00	24109.86
1629.00	24035.74
1630.00	23971.77
1631.00	23876.59
1632.00	23878.93
1633.00	23855.52
1634.00	23886.73
1635.00	23775.94
1636.00	23819.63
1637.00	23853.18
1638.00	23754.88
1639.00	23704.95
1640.00	23394.43
1641.00	23142.44
1642.00	22685.25
1643.00	22608.01
1644.00	22611.14
1645.00	22893.56
1646.00	23065.98
1647.00	23422.52
1648.00	23629.27
1649.00	23838.36
1650.00	23948.36
1651.00	24050.56
1652.00	24140.29
1653.00	24077.09
1654.00	23931.98
1655.00	23686.22
1656.00	23370.25
1657.00	23105.77
1658.00	22987.96
1659.00	22984.84
1660.00	23144.00
1661.00	23349.18
1662.00	23452.17
1663.00	23490.40
1664.00	23416.28
1665.00	23457.63
1666.00	23488.84
1667.00	23562.17
1668.00	23594.16
1669.00	23433.44
1670.00	23299.25
1671.00	23268.05
1672.00	23356.21
1673.00	23280.53
1674.00	23175.20
1675.00	23058.96
1676.00	23010.59
1677.00	22791.36
1678.00	22654.83
1679.00	22475.38
1680.00	22328.71
1681.00	22190.62
1682.00	22064.23
1683.00	21987.77
1684.00	21635.91
1685.00	21145.18
1686.00	20436.00
1687.00	19676.10
1688.00	18892.80
1689.00	18188.30
1690.00	17738.14
1691.00	17899.64
1692.00	18429.38
1693.00	19115.16
1694.00	19591.84
1695.00	20070.87
1696.00	20567.85
1697.00	21081.21
1698.00	21458.81
1699.00	21664.78
1700.00	21804.43
1701.00	21784.15
1702.00	21810.67
1703.00	21845.00
1704.00	21946.42
1705.00	21994.79
1706.00	21843.44
1707.00	21798.19
1708.00	21738.12
1709.00	21795.85
1710.00	21722.51
1711.00	21630.45
1712.00	21566.48
1713.00	21608.61
1714.00	21805.99
1715.00	21799.75
1716.00	21867.63
1717.00	21862.16
1718.00	22057.99
1719.00	21967.49
1720.00	21853.58
1721.00	21613.29
1722.00	21632.01
1723.00	21645.27
1724.00	21656.98
1725.00	21659.32
1726.00	21635.91
1727.00	21577.40
1728.00	21464.27
1729.00	21460.37
1730.00	21607.05
1731.00	21633.57
1732.00	21607.83
1733.00	21504.06
1734.00	21421.36
1735.00	21299.66
1736.00	21137.38
1737.00	21028.15
1738.00	20871.34
1739.00	20831.55
1740.00	20750.41
1741.00	20728.56
1742.00	20672.39
1743.00	20638.84
1744.00	20652.11
1745.00	20581.89
1746.00	20601.40
1747.00	20473.45
1748.00	20463.30
1749.00	20450.82
1750.00	20521.04
1751.00	20564.73
1752.00	20470.33
1753.00	20436.78
1754.00	20414.93
1755.00	20365.00
1756.00	20267.48
1757.00	20201.16
1758.00	20134.07
1759.00	20079.46
1760.00	19978.81
1761.00	19964.77
1762.00	19877.39
1763.00	19780.65
1764.00	19816.54
1765.00	19848.52
1766.00	19942.14
1767.00	19877.39
1768.00	19794.69
1769.00	19549.71
1770.00	19467.80
1771.00	19406.94
1772.00	19490.42
1773.00	19538.79
1774.00	19543.47
1775.00	19529.43
1776.00	19542.69
1777.00	19612.91
1778.00	19670.64
1779.00	19459.99
1780.00	19318.78
1781.00	19077.71
1782.00	19154.16
1783.00	19006.71
1784.00	18972.38
1785.00	18801.52
1786.00	18842.87
1787.00	18818.69
1788.00	18771.88
1789.00	18731.31
1790.00	18672.79
1791.00	18594.78
1792.00	18512.08
1793.00	18465.27
1794.00	18454.34
1795.00	18427.82
1796.00	18403.63
1797.00	18273.34
1798.00	18148.51
1799.00	18084.54
1800.00	18108.72
1801.00	18176.60
1802.00	18141.49
1803.00	18063.47
1804.00	17888.71
1805.00	17900.42
1806.00	17919.92
1807.00	18010.42
1808.00	17854.39
1809.00	17791.19
1810.00	17685.09
1811.00	17656.22
1812.00	17615.65
1813.00	17649.20
1814.00	17663.24
1815.00	17600.05
1816.00	17439.33
1817.00	17216.98
1818.00	17128.04
1819.00	17132.72
1820.00	17207.62
1821.00	17184.21
1822.00	17167.05
1823.00	17121.02
1824.00	17140.52
1825.00	17070.31
1826.00	17068.75
1827.00	17071.87
1828.00	17022.72
1829.00	16994.63
1830.00	16753.55
1831.00	16740.29
1832.00	16720.01
1833.00	16777.74
1834.00	16689.58
1835.00	16620.92
1836.00	16425.88
1837.00	16334.60
1838.00	16230.84
1839.00	16336.94
1840.00	16309.63
1841.00	16297.15
1842.00	16223.81
1843.00	16173.10
1844.00	16147.36
1845.00	16100.55
1846.00	16015.51
1847.00	15810.32
1848.00	15679.25
1849.00	15650.38
1850.00	15555.98
1851.00	15561.44
1852.00	15495.91
1853.00	15468.60
1854.00	15377.32
1855.00	15412.43
1856.00	15399.16
1857.00	15364.84
1858.00	15238.45
1859.00	15295.40
1860.00	15214.26
1861.00	15211.14
1862.00	15029.36
1863.00	15128.44
1864.00	15030.14
1865.00	14968.51
1866.00	14761.76
1867.00	14753.96
1868.00	14863.18
1869.00	14867.86
1870.00	14825.73
1871.00	14735.23
1872.00	14723.53
1873.00	14653.31
1874.00	14569.83
1875.00	14501.96
1876.00	14427.06
1877.00	14375.57
1878.00	14335.00
1879.00	14242.94
1880.00	14225.00
1881.00	14139.96
1882.00	14161.80
1883.00	14042.43
1884.00	13955.83
1885.00	13789.66
1886.00	13608.65
1887.00	13506.45
1888.00	13493.97
1889.00	13528.30
1890.00	13502.55
1891.00	13422.97
1892.00	13355.10
1893.00	13389.42
1894.00	13474.46
1895.00	13447.16
1896.00	13368.36
1897.00	13168.63
1898.00	13076.57
1899.00	13067.99
1900.00	13056.29
1901.00	13011.04
1902.00	12878.41
1903.00	12660.74
1904.00	12255.04
1905.00	11573.95
1906.00	10741.50
1907.00	9907.49
1908.00	9181.14
1909.00	8539.05
1910.00	8113.86
1911.00	7840.79
1912.00	7939.10
1913.00	8167.69
1914.00	8613.95
1915.00	9015.74
1916.00	9489.31
1917.00	9745.99
1918.00	9972.24
1919.00	9965.22
1920.00	9922.31
1921.00	9768.62
1922.00	9703.08
1923.00	9621.94
1924.00	9557.97
1925.00	9486.97
1926.00	9394.13
1927.00	9366.82
1928.00	9398.81
1929.00	9529.88
1930.00	9597.76
1931.00	9639.11
1932.00	9647.69
1933.00	9756.13
1934.00	9776.42
1935.00	9866.14
1936.00	9915.29
1937.00	9987.85
1938.00	10021.39
1939.00	10075.23
1940.00	10161.05
1941.00	10193.03
1942.00	10151.68
1943.00	10152.46
1944.00	10086.15
1945.00	10078.35
1946.00	10037.78
1947.00	10065.08
1948.00	10099.41
1949.00	10046.36
1950.00	9958.98
1951.00	9852.88
1952.00	9847.41
1953.00	9884.08
1954.00	9924.65
1955.00	9836.49
1956.00	9778.76
1957.00	9631.30
1958.00	9547.83
1959.00	9421.44
1960.00	9337.96
1961.00	9300.51
1962.00	9213.91
1963.00	9129.65
1964.00	9107.80
1965.00	9211.57
1966.00	9250.58
1967.00	9240.44
1968.00	9115.61
1969.00	9088.30
1970.00	9024.33
1971.00	9054.75
1972.00	9028.23
1973.00	8985.32
1974.00	8978.30
1975.00	9032.13
1976.00	9073.48
1977.00	9071.14
1978.00	9050.85
1979.00	9104.68
1980.00	9185.82
1981.00	9215.47
1982.00	9133.55
1983.00	9014.18
1984.00	8952.55
1985.00	8939.29
1986.00	8898.72
1987.00	8794.95
1988.00	8730.20
1989.00	8657.64
1990.00	8622.53
1991.00	8526.57
1992.00	8391.60
1993.00	8274.57
1994.00	8230.10
1995.00	8261.31
1996.00	8292.52
1997.00	8227.76
1998.00	8159.11
1999.00	8047.54
2000.00	8024.14
2001.00	7925.83
2002.00	7919.59
2003.00	7902.43
2004.00	7879.02
2005.00	7783.06
2006.00	7653.55
2007.00	7630.15
2008.00	7669.16
2009.00	7659.01
2010.00	7615.32
2011.00	7545.11
2012.00	7461.63
2013.00	7401.55
2014.00	7316.51
2015.00	7332.12
2016.00	7371.91
2017.00	7415.60
2018.00	7423.40
2019.00	7350.06
2020.00	7257.22
2021.00	7176.86
2022.00	7148.00
2023.00	7119.91
2024.00	7113.67
2025.00	7064.52
2026.00	7030.97
2027.00	6990.40
2028.00	7009.90
2029.00	7091.82
2030.00	7141.75
2031.00	7133.17
2032.00	7034.87
2033.00	7004.44
2034.00	6939.69
2035.00	6864.01
2036.00	6840.61
2037.00	6855.43
2038.00	6855.43
2039.00	6835.92
2040.00	6848.41
2041.00	6864.01
2042.00	6798.48
2043.00	6793.01
2044.00	6800.82
2045.00	6812.52
2046.00	6746.20
2047.00	6717.34
>>>>>End Processed Spectral Data<<<<<
