SpectraSuite Data File
++++++++++++++++++++++++++++++++++++
Date: Thu Nov 16 13:32:55 EST 2017
User: cheriyan
Dark Spectrum Present: No
Reference Spectrum Present: No
Number of Sampled Component Spectra: 1
Spectrometers: USB2+H05261
Integration Time (usec): 90000 (USB2+H05261)
Spectra Averaged: 1 (USB2+H05261)
Boxcar Smoothing: 1 (USB2+H05261)
Correct for Electrical Dark: No (USB2+H05261)
Strobe/Lamp Enabled: No (USB2+H05261)
Correct for Detector Non-linearity: No (USB2+H05261)
Correct for Stray Light: No (USB2+H05261)
Number of Pixels in Processed Spectrum: 2048
>>>>>Begin Processed Spectral Data<<<<<
0.00	400.23
1.00	400.23
2.00	372.15
3.00	347.18
4.00	337.82
5.00	318.31
6.00	273.06
7.00	259.02
8.00	245.76
9.00	266.82
10.00	254.34
11.00	278.52
12.00	286.33
13.00	286.33
14.00	270.72
15.00	261.36
16.00	244.98
17.00	276.18
18.00	319.09
19.00	343.28
20.00	329.24
21.00	312.07
22.00	319.09
23.00	757.55
24.00	2385.79
25.00	4123.24
26.00	5495.58
27.00	5604.02
28.00	5483.88
29.00	5211.59
30.00	5061.80
31.00	5000.16
32.00	5093.79
33.00	5085.20
34.00	5105.49
35.00	4986.90
36.00	4883.14
37.00	4716.96
38.00	4600.71
39.00	4641.28
40.00	4755.19
41.00	4815.26
42.00	4715.40
43.00	4624.90
44.00	4734.12
45.00	4971.30
46.00	5281.03
47.00	5489.34
48.00	5680.48
49.00	5733.53
50.00	5780.34
51.00	5690.62
52.00	5717.93
53.00	5774.10
54.00	5960.56
55.00	6160.29
56.00	6416.19
57.00	6658.04
58.00	6902.24
59.00	7119.13
60.00	7210.41
61.00	7275.17
62.00	7087.14
63.00	6963.87
64.00	6640.88
65.00	6415.41
66.00	6130.64
67.00	5916.09
68.00	5822.47
69.00	5847.44
70.00	6046.38
71.00	6310.08
72.00	6568.32
73.00	6759.47
74.00	6849.19
75.00	6795.36
76.00	6622.16
77.00	6370.16
78.00	6107.24
79.00	5824.81
80.00	5522.88
81.00	5294.29
82.00	5061.02
83.00	4869.87
84.00	4694.33
85.00	4593.69
86.00	4479.79
87.00	4436.88
88.00	4422.83
89.00	4535.18
90.00	4727.10
91.00	5064.14
92.00	5557.21
93.00	5928.58
94.00	6225.83
95.00	6363.92
96.00	6393.56
97.00	6377.18
98.00	6191.50
99.00	6132.98
100.00	6023.76
101.00	6091.63
102.00	6195.40
103.00	6406.83
104.00	6537.12
105.00	6548.04
106.00	6494.21
107.00	6462.22
108.00	6491.87
109.00	6522.29
110.00	6535.56
111.00	6565.98
112.00	6515.27
113.00	6472.36
114.00	6469.24
115.00	6615.91
116.00	6947.49
117.00	7316.51
118.00	7666.81
119.00	7963.28
120.00	8220.74
121.00	8332.31
122.00	8335.43
123.00	8255.07
124.00	8486.00
125.00	8748.92
126.00	9040.71
127.00	9205.33
128.00	9332.50
129.00	9383.21
130.00	9192.06
131.00	8919.78
132.00	8568.70
133.00	8131.80
134.00	7506.88
135.00	6821.88
136.00	6072.13
137.00	5405.08
138.00	4796.54
139.00	4615.54
140.00	4778.59
141.00	5366.07
142.00	6063.55
143.00	6842.17
144.00	7580.22
145.00	8257.41
146.00	8879.21
147.00	9302.07
148.00	9655.49
149.00	9867.70
150.00	9932.45
151.00	9732.73
152.00	9241.22
153.00	8493.02
154.00	7572.41
155.00	6645.56
156.00	5970.71
157.00	5739.77
158.00	5984.75
159.00	6711.88
160.00	7812.71
161.00	8970.49
162.00	10059.62
163.00	10871.79
164.00	11575.51
165.00	12063.90
166.00	12410.30
167.00	12693.51
168.00	13071.11
169.00	13358.22
170.00	13528.30
171.00	13527.52
172.00	13621.14
173.00	13694.47
174.00	13749.09
175.00	13758.45
176.00	13877.82
177.00	14113.43
178.00	14406.78
179.00	14752.40
180.00	14973.97
181.00	15048.08
182.00	15167.45
183.00	15179.93
184.00	15312.56
185.00	15228.31
186.00	15262.63
187.00	15291.50
188.00	15100.36
189.00	14826.51
190.00	14616.65
191.00	14665.80
192.00	14961.48
193.00	15280.58
194.00	15541.16
195.00	15473.28
196.00	15195.54
197.00	14984.11
198.00	15005.17
199.00	15115.18
200.00	15110.50
201.00	15071.49
202.00	14988.79
203.00	14966.17
204.00	14854.60
205.00	14747.72
206.00	14658.00
207.00	14764.88
208.00	14892.05
209.00	15055.11
210.00	15255.61
211.00	15239.23
212.00	15229.09
213.00	15218.94
214.00	15437.39
215.00	15774.43
216.00	16063.10
217.00	16425.88
218.00	16726.25
219.00	16992.29
220.00	17005.55
221.00	16950.16
222.00	16559.29
223.00	16073.24
224.00	15447.54
225.00	15028.58
226.00	14852.26
227.00	15049.64
228.00	15424.91
229.00	16056.86
230.00	16620.14
231.00	17253.65
232.00	17738.14
233.00	18058.01
234.00	18181.28
235.00	18221.85
236.00	18359.94
237.00	18411.43
238.00	18313.13
239.00	18070.50
240.00	17954.25
241.00	17881.69
242.00	17969.07
243.00	17968.29
244.00	18362.28
245.00	18498.81
246.00	18728.19
247.00	18628.32
248.00	18616.62
249.00	18473.07
250.00	18465.27
251.00	18540.94
252.00	18644.71
253.00	18737.55
254.00	18827.27
255.00	19082.39
256.00	19452.97
257.00	19896.11
258.00	20303.37
259.00	20426.64
260.00	20436.00
261.00	20124.71
262.00	19706.53
263.00	19311.76
264.00	19090.97
265.00	19189.27
266.00	19225.16
267.00	19409.28
268.00	19406.94
269.00	19571.56
270.00	19416.30
271.00	19648.80
272.00	19786.11
273.00	20301.03
274.00	20127.05
275.00	19953.85
276.00	19635.53
277.00	19505.24
278.00	19420.20
279.00	19477.94
280.00	20015.48
281.00	20574.87
282.00	21122.55
283.00	21287.17
284.00	21373.77
285.00	21401.08
286.00	21457.25
287.00	21124.12
288.00	20746.51
289.00	20180.88
290.00	19726.82
291.00	19293.04
292.00	19000.47
293.00	19308.64
294.00	19573.90
295.00	19961.65
296.00	20081.80
297.00	20150.45
298.00	20382.95
299.00	20455.50
300.00	20582.67
301.00	20266.70
302.00	20201.16
303.00	20144.99
304.00	20129.39
305.00	20018.60
306.00	19807.17
307.00	19809.51
308.00	19613.69
309.00	19562.20
310.00	19676.10
311.00	19967.89
312.00	20090.38
313.00	19953.07
314.00	19487.30
315.00	18940.40
316.00	18562.01
317.00	18462.15
318.00	18796.84
319.00	19159.63
320.00	19594.18
321.00	19651.92
322.00	19470.14
323.00	19183.81
324.00	18980.18
325.00	18772.66
326.00	18778.12
327.00	18601.80
328.00	18242.14
329.00	17452.59
330.00	16524.96
331.00	15630.88
332.00	14855.38
333.00	14422.38
334.00	14317.84
335.00	14623.67
336.00	15268.87
337.00	16383.75
338.00	17940.99
339.00	19747.88
340.00	21278.59
341.00	21923.80
342.00	21722.51
343.00	21065.60
344.00	20555.36
345.00	20522.60
346.00	21035.95
347.00	21798.97
348.00	22231.97
349.00	22024.44
350.00	21237.24
351.00	20248.75
352.00	19523.97
353.00	19485.74
354.00	19965.55
355.00	20711.40
356.00	21224.76
357.00	21750.60
358.00	21879.33
359.00	22108.70
360.00	22160.97
361.00	22799.16
362.00	23090.95
363.00	23490.40
364.00	23605.08
365.00	23772.82
366.00	23856.30
367.00	23787.64
368.00	23567.63
369.00	23148.68
370.00	22793.70
371.00	22618.16
372.00	22469.92
373.00	21948.76
374.00	21377.67
375.00	21006.31
376.00	20820.63
377.00	20917.37
378.00	21165.46
379.00	21796.63
380.00	22432.47
381.00	23136.20
382.00	23602.74
383.00	23892.19
384.00	23768.14
385.00	23541.89
386.00	23339.82
387.00	23466.99
388.00	23841.48
389.00	24358.74
390.00	24917.34
391.00	25305.87
392.00	25750.57
393.00	26079.81
394.00	26376.28
395.00	26709.41
396.00	26903.68
397.00	27213.41
398.00	27430.30
399.00	27555.91
400.00	27385.83
401.00	27165.82
402.00	27108.86
403.00	27422.50
404.00	27583.21
405.00	27718.96
406.00	27814.15
407.00	27719.74
408.00	27467.75
409.00	27371.00
410.00	27382.71
411.00	27691.66
412.00	27255.54
413.00	26744.52
414.00	25940.16
415.00	25564.11
416.00	25489.21
417.00	25543.83
418.00	25912.85
419.00	26214.00
420.00	26757.78
421.00	27162.70
422.00	27645.63
423.00	28008.41
424.00	28202.68
425.00	28484.32
426.00	28442.97
427.00	28270.55
428.00	27951.46
429.00	27994.37
430.00	28127.00
431.00	28158.20
432.00	28032.60
433.00	28066.92
434.00	28177.71
435.00	28361.83
436.00	28535.81
437.00	28813.55
438.00	29016.40
439.00	29359.68
440.00	30031.41
441.00	30343.49
442.00	30507.32
443.00	30230.36
444.00	30318.52
445.00	30276.39
446.00	30066.52
447.00	29993.18
448.00	29837.93
449.00	29649.91
450.00	29252.80
451.00	28804.97
452.00	28269.77
453.00	27679.18
454.00	27371.00
455.00	27356.96
456.00	27623.78
457.00	28051.32
458.00	28602.91
459.00	28904.06
460.00	29229.39
461.00	29221.59
462.00	29464.22
463.00	29184.92
464.00	29097.54
465.00	28716.81
466.00	28705.11
467.00	28875.97
468.00	29194.28
469.00	29646.79
470.00	30174.97
471.00	30633.71
472.00	30749.96
473.00	30640.73
474.00	30585.34
475.00	30819.39
476.00	31046.43
477.00	31344.45
478.00	31402.97
479.00	31598.01
480.00	31155.65
481.00	30941.88
482.00	30315.40
483.00	30064.96
484.00	30140.64
485.00	30265.47
486.00	30698.47
487.00	30579.88
488.00	30709.39
489.00	30623.57
490.00	30450.37
491.00	30358.31
492.00	30275.61
493.00	30483.14
494.00	30540.09
495.00	30705.49
496.00	30985.57
497.00	31289.84
498.00	31572.27
499.00	31528.58
500.00	31503.61
501.00	31709.58
502.00	31969.38
503.00	32131.65
504.00	32236.98
505.00	32212.79
506.00	32288.47
507.00	32404.72
508.00	32453.09
509.00	32433.58
510.00	32318.90
511.00	32320.46
512.00	32290.81
513.00	32144.92
514.00	32001.36
515.00	31863.27
516.00	31681.49
517.00	31463.82
518.00	31187.64
519.00	30775.70
520.00	30976.21
521.00	31056.57
522.00	31449.00
523.00	31588.65
524.00	32038.81
525.00	32236.20
526.00	31984.20
527.00	31449.00
528.00	30746.84
529.00	30368.45
530.00	30334.90
531.00	30617.33
532.00	30780.39
533.00	31081.53
534.00	31197.00
535.00	31420.91
536.00	31156.43
537.00	30995.71
538.00	31061.25
539.00	31310.91
540.00	31568.37
541.00	31482.55
542.00	31528.58
543.00	31612.84
544.00	31774.33
545.00	31678.37
546.00	31248.49
547.00	30842.02
548.00	30422.28
549.00	30564.28
550.00	30385.61
551.00	30719.53
552.00	30699.25
553.00	31131.47
554.00	31176.72
555.00	31671.35
556.00	32106.69
557.00	32755.02
558.00	33287.10
559.00	33592.93
560.00	33738.82
561.00	33613.21
562.00	33170.07
563.00	32917.29
564.00	32509.26
565.00	32679.34
566.00	32858.78
567.00	33087.37
568.00	33161.49
569.00	33153.69
570.00	33519.59
571.00	34060.26
572.00	34350.48
573.00	34381.69
574.00	34258.42
575.00	34330.98
576.00	34504.96
577.00	34458.15
578.00	34614.18
579.00	34316.93
580.00	34438.64
581.00	34188.99
582.00	34283.39
583.00	34199.91
584.00	34361.40
585.00	34762.42
586.00	35317.90
587.00	35592.53
588.00	35776.65
589.00	36220.57
590.00	36822.09
591.00	37471.98
592.00	37644.40
593.00	37592.12
594.00	37418.14
595.00	37286.29
596.00	37435.31
597.00	37722.41
598.00	38121.09
599.00	38642.24
600.00	39085.39
601.00	39385.75
602.00	39379.51
603.00	39386.53
604.00	39571.44
605.00	39920.96
606.00	39909.25
607.00	40008.34
608.00	40201.82
609.00	40777.59
610.00	41067.82
611.00	41375.99
612.00	41563.23
613.00	41997.01
614.00	42075.03
615.00	42110.92
616.00	41965.03
617.00	42039.92
618.00	42289.58
619.00	42251.35
620.00	42383.20
621.00	42545.48
622.00	42977.70
623.00	43224.23
624.00	43131.39
625.00	42912.94
626.00	42855.21
627.00	42839.61
628.00	43067.42
629.00	43369.35
630.00	43841.35
631.00	43752.41
632.00	42986.28
633.00	42168.65
634.00	40809.58
635.00	39029.99
636.00	37146.64
637.00	36513.14
638.00	37087.35
639.00	38164.00
640.00	39333.48
641.00	40435.88
642.00	41449.33
643.00	42272.42
644.00	43102.53
645.00	43881.92
646.00	44702.67
647.00	45447.74
648.00	46121.04
649.00	46463.53
650.00	46308.28
651.00	45890.10
652.00	45384.55
653.00	45476.61
654.00	45873.72
655.00	47054.13
656.00	48102.69
657.00	49070.11
658.00	49448.50
659.00	49660.71
660.00	49720.78
661.00	49786.32
662.00	49883.84
663.00	49667.73
664.00	49379.06
665.00	49095.08
666.00	49341.61
667.00	49281.54
668.00	48807.97
669.00	48066.80
670.00	47627.56
671.00	47755.51
672.00	48346.11
673.00	49327.57
674.00	50367.55
675.00	51105.60
676.00	51320.15
677.00	51154.75
678.00	50620.33
679.00	50426.06
680.00	50436.98
681.00	50808.35
682.00	51399.72
683.00	51928.69
684.00	52637.87
685.00	52959.30
686.00	53188.67
687.00	53191.01
688.00	53037.32
689.00	52863.34
690.00	52423.32
691.00	52189.27
692.00	52161.18
693.00	52596.52
694.00	53109.10
695.00	53493.72
696.00	53560.04
697.00	53538.97
698.00	53687.21
699.00	53846.36
700.00	54071.06
701.00	54135.81
702.00	54110.85
703.00	53756.64
704.00	53092.71
705.00	52577.01
706.00	52293.03
707.00	52541.13
708.00	52969.44
709.00	53418.05
710.00	53847.92
711.00	54229.43
712.00	54453.34
713.00	54420.58
714.00	54103.82
715.00	53847.14
716.00	53474.22
717.00	53270.59
718.00	52943.70
719.00	52886.74
720.00	52846.96
721.00	52864.90
722.00	52714.33
723.00	52490.41
724.00	52406.94
725.00	52371.05
726.00	52503.68
727.00	52806.39
728.00	53020.94
729.00	53311.16
730.00	53478.12
731.00	53858.07
732.00	54086.66
733.00	54248.94
734.00	54191.20
735.00	53918.92
736.00	53451.59
737.00	52954.62
738.00	52705.74
739.00	52760.36
740.00	53074.77
741.00	53604.51
742.00	53995.38
743.00	54263.76
744.00	54401.85
745.00	54642.15
746.00	54902.73
747.00	55256.93
748.00	55515.95
749.00	55883.41
750.00	55792.13
751.00	55530.77
752.00	55213.24
753.00	54960.46
754.00	54956.56
755.00	54834.07
756.00	54901.17
757.00	54685.06
758.00	54480.65
759.00	54191.98
760.00	53952.47
761.00	53835.44
762.00	53901.76
763.00	54305.89
764.00	54732.65
765.00	55139.12
766.00	55521.41
767.00	55853.76
768.00	55980.93
769.00	55830.36
770.00	55578.36
771.00	55380.20
772.00	55267.85
773.00	55261.61
774.00	55190.61
775.00	55148.48
776.00	55074.37
777.00	55211.68
778.00	55432.47
779.00	55678.22
780.00	55891.99
781.00	56160.37
782.00	56364.78
783.00	56344.50
784.00	56133.07
785.00	55725.03
786.00	55423.89
787.00	55157.06
788.00	55030.68
789.00	55008.83
790.00	55017.41
791.00	55168.77
792.00	55177.35
793.00	54984.65
794.00	54762.29
795.00	54493.91
796.00	54535.26
797.00	54523.56
798.00	54676.47
799.00	54837.19
800.00	54883.22
801.00	54976.06
802.00	55104.79
803.00	55292.82
804.00	55496.44
805.00	55694.61
806.00	55819.44
807.00	55470.70
808.00	54738.89
809.00	53674.73
810.00	52332.04
811.00	50910.55
812.00	49672.41
813.00	49203.52
814.00	49649.00
815.00	50881.69
816.00	52435.80
817.00	53373.58
818.00	53479.68
819.00	52825.11
820.00	52011.38
821.00	51661.08
822.00	51952.09
823.00	52601.98
824.00	53269.03
825.00	53702.03
826.00	54007.08
827.00	54373.77
828.00	54799.74
829.00	55242.10
830.00	55557.30
831.00	55520.63
832.00	55469.14
833.00	55143.80
834.00	55107.91
835.00	55082.17
836.00	55330.26
837.00	55575.24
838.00	55743.76
839.00	55927.10
840.00	56026.18
841.00	56120.59
842.00	56079.24
843.00	55807.73
844.00	55462.89
845.00	55002.59
846.00	54835.63
847.00	54753.71
848.00	54896.49
849.00	55113.37
850.00	55515.95
851.00	55931.00
852.00	56289.10
853.00	56604.30
854.00	56808.70
855.00	56926.51
856.00	56822.75
857.00	56587.91
858.00	56403.79
859.00	56193.92
860.00	56239.95
861.00	56261.02
862.00	56511.45
863.00	56545.00
864.00	56322.65
865.00	55690.71
866.00	54886.34
867.00	53900.98
868.00	52949.16
869.00	52298.49
870.00	52019.19
871.00	52207.21
872.00	52558.29
873.00	53366.55
874.00	54039.85
875.00	54721.72
876.00	55070.46
877.00	55359.13
878.00	55507.36
879.00	55725.81
880.00	56020.72
881.00	56417.05
882.00	56623.80
883.00	56781.40
884.00	56541.88
885.00	56193.92
886.00	55798.37
887.00	55577.58
888.00	55547.93
889.00	55597.09
890.00	55849.08
891.00	56126.83
892.00	56410.81
893.00	56515.36
894.00	56626.14
895.00	56587.91
896.00	56584.79
897.00	56328.89
898.00	56167.40
899.00	56000.44
900.00	55796.81
901.00	55366.93
902.00	54766.20
903.00	54254.40
904.00	53847.92
905.00	53770.69
906.00	53965.73
907.00	54479.87
908.00	54834.85
909.00	55390.34
910.00	55415.30
911.00	55407.50
912.00	54964.36
913.00	54978.40
914.00	54967.48
915.00	55167.21
916.00	55173.45
917.00	55298.28
918.00	55462.11
919.00	55732.84
920.00	56077.68
921.00	56285.98
922.00	56441.24
923.00	56271.94
924.00	56026.18
925.00	55525.31
926.00	55198.41
927.00	54739.67
928.00	54370.64
929.00	54137.37
930.00	54092.90
931.00	54272.34
932.00	54493.91
933.00	54820.81
934.00	55078.27
935.00	55163.31
936.00	55158.62
937.00	55189.05
938.00	55043.94
939.00	54999.47
940.00	54938.61
941.00	54842.65
942.00	54645.27
943.00	54264.54
944.00	54052.33
945.00	53802.67
946.00	53744.94
947.00	53584.22
948.00	53499.97
949.00	53269.03
950.00	53131.72
951.00	52870.36
952.00	52704.96
953.00	52708.08
954.00	53045.12
955.00	53414.15
956.00	53801.89
957.00	53950.91
958.00	54042.19
959.00	54078.86
960.00	53927.50
961.00	53814.38
962.00	53698.13
963.00	53759.76
964.00	53795.65
965.00	53787.85
966.00	53755.86
967.00	53818.28
968.00	53981.34
969.00	54184.96
970.00	54532.14
971.00	54714.70
972.00	54901.17
973.00	54578.17
974.00	54398.73
975.00	54291.85
976.00	54291.07
977.00	54181.06
978.00	54013.32
979.00	53986.80
980.00	54057.01
981.00	54180.28
982.00	54220.85
983.00	54119.43
984.00	53949.35
985.00	53826.08
986.00	53778.49
987.00	53762.89
988.00	53854.95
989.00	53801.89
990.00	53739.48
991.00	53337.69
992.00	53076.33
993.00	52724.47
994.00	52740.07
995.00	52898.45
996.00	53176.97
997.00	53493.72
998.00	53776.93
999.00	53923.60
1000.00	54046.09
1001.00	53879.91
1002.00	53751.18
1003.00	53525.71
1004.00	53621.67
1005.00	53708.27
1006.00	53838.56
1007.00	53685.65
1008.00	53676.29
1009.00	53305.70
1010.00	53244.07
1011.00	52950.72
1012.00	53109.10
1013.00	52944.48
1014.00	52914.83
1015.00	52988.17
1016.00	53254.99
1017.00	53549.12
1018.00	53642.74
1019.00	53715.29
1020.00	53611.53
1021.00	53402.44
1022.00	53050.58
1023.00	52620.70
1024.00	52530.98
1025.00	52667.51
1026.00	53026.40
1027.00	53117.68
1028.00	53155.91
1029.00	53126.26
1030.00	53205.06
1031.00	53354.85
1032.00	53525.71
1033.00	53616.21
1034.00	53542.10
1035.00	53536.63
1036.00	53590.47
1037.00	53560.82
1038.00	53430.53
1039.00	53253.43
1040.00	53116.90
1041.00	52946.04
1042.00	52722.13
1043.00	52598.08
1044.00	52558.29
1045.00	52515.38
1046.00	52355.44
1047.00	52119.83
1048.00	51914.64
1049.00	51736.76
1050.00	51729.74
1051.00	51798.40
1052.00	52000.46
1053.00	52232.18
1054.00	52384.31
1055.00	52328.92
1056.00	52041.81
1057.00	51554.20
1058.00	51118.86
1059.00	50585.22
1060.00	50399.54
1061.00	50230.24
1062.00	50447.91
1063.00	50531.39
1064.00	50708.49
1065.00	50662.46
1066.00	50725.65
1067.00	50728.77
1068.00	50836.44
1069.00	51059.57
1070.00	51328.73
1071.00	51796.84
1072.00	51987.20
1073.00	52049.61
1074.00	51775.77
1075.00	51394.26
1076.00	50959.70
1077.00	50650.75
1078.00	50591.46
1079.00	50660.12
1080.00	50625.01
1081.00	50721.75
1082.00	50873.10
1083.00	51152.41
1084.00	51195.32
1085.00	51379.44
1086.00	51415.33
1087.00	51448.88
1088.00	51148.51
1089.00	50948.00
1090.00	50642.17
1091.00	50432.30
1092.00	50305.91
1093.00	50253.64
1094.00	50474.43
1095.00	50649.97
1096.00	50839.56
1097.00	50752.18
1098.00	50471.31
1099.00	50222.44
1100.00	49886.96
1101.00	49447.72
1102.00	49006.92
1103.00	48791.59
1104.00	48708.89
1105.00	48861.02
1106.00	49093.52
1107.00	49430.55
1108.00	49581.91
1109.00	49652.12
1110.00	49761.35
1111.00	49851.85
1112.00	49993.06
1113.00	50082.00
1114.00	49890.86
1115.00	49401.69
1116.00	49005.36
1117.00	48708.89
1118.00	48484.20
1119.00	48114.39
1120.00	47867.86
1121.00	47856.93
1122.00	47963.04
1123.00	48154.96
1124.00	48350.79
1125.00	48442.07
1126.00	48441.29
1127.00	48221.28
1128.00	48137.02
1129.00	47857.71
1130.00	47565.93
1131.00	47152.43
1132.00	46781.07
1133.00	46461.19
1134.00	46057.06
1135.00	46006.35
1136.00	46076.57
1137.00	46409.70
1138.00	46770.14
1139.00	47223.43
1140.00	47553.44
1141.00	47801.54
1142.00	47878.00
1143.00	47930.27
1144.00	47926.37
1145.00	47849.91
1146.00	47824.95
1147.00	47688.42
1148.00	47756.29
1149.00	47582.31
1150.00	47467.62
1151.00	47185.20
1152.00	47237.47
1153.00	47225.77
1154.00	47193.78
1155.00	46816.96
1156.00	46546.23
1157.00	46297.36
1158.00	46244.30
1159.00	46049.26
1160.00	45789.46
1161.00	45544.48
1162.00	45407.95
1163.00	45274.54
1164.00	45322.13
1165.00	45268.30
1166.00	45332.28
1167.00	45400.93
1168.00	45864.36
1169.00	46143.66
1170.00	45988.41
1171.00	45604.56
1172.00	45392.35
1173.00	45413.41
1174.00	45471.15
1175.00	45306.53
1176.00	45120.85
1177.00	44676.15
1178.00	44419.47
1179.00	44094.91
1180.00	44094.91
1181.00	44120.66
1182.00	44250.17
1183.00	44254.07
1184.00	44319.60
1185.00	44641.82
1186.00	44776.01
1187.00	45067.02
1188.00	45081.84
1189.00	45245.68
1190.00	45213.69
1191.00	45036.59
1192.00	44890.69
1193.00	44639.48
1194.00	44759.62
1195.00	45061.55
1196.00	45155.96
1197.00	45176.24
1198.00	45123.97
1199.00	45385.33
1200.00	45441.50
1201.00	45435.26
1202.00	45385.33
1203.00	45547.61
1204.00	45563.99
1205.00	45714.56
1206.00	45706.76
1207.00	45894.00
1208.00	45788.68
1209.00	45711.44
1210.00	45463.35
1211.00	45502.35
1212.00	45470.37
1213.00	45424.34
1214.00	45185.60
1215.00	45174.68
1216.00	45169.22
1217.00	45194.96
1218.00	44989.00
1219.00	44865.73
1220.00	44695.65
1221.00	44415.57
1222.00	44094.91
1223.00	43927.95
1224.00	43652.55
1225.00	43466.87
1226.00	43154.02
1227.00	42994.86
1228.00	42891.10
1229.00	42843.51
1230.00	43145.44
1231.00	43350.62
1232.00	43693.90
1233.00	43691.56
1234.00	43619.00
1235.00	43458.29
1236.00	43506.66
1237.00	43477.01
1238.00	43339.70
1239.00	43228.13
1240.00	42821.66
1241.00	42377.74
1242.00	41564.01
1243.00	40620.00
1244.00	39448.95
1245.00	38298.19
1246.00	37407.22
1247.00	36897.77
1248.00	36564.63
1249.00	36716.76
1250.00	37045.22
1251.00	37680.28
1252.00	38509.61
1253.00	39450.51
1254.00	40226.79
1255.00	40605.95
1256.00	40973.42
1257.00	41384.57
1258.00	41596.00
1259.00	41368.97
1260.00	41152.08
1261.00	41005.41
1262.00	41000.72
1263.00	40808.80
1264.00	40584.89
1265.00	40371.90
1266.00	40267.36
1267.00	40494.39
1268.00	40796.32
1269.00	41108.39
1270.00	40939.09
1271.00	40890.72
1272.00	40788.52
1273.00	40857.17
1274.00	40824.40
1275.00	40743.27
1276.00	40631.70
1277.00	40427.29
1278.00	40201.82
1279.00	40007.56
1280.00	39665.84
1281.00	39349.87
1282.00	39166.52
1283.00	39232.06
1284.00	39292.13
1285.00	39638.53
1286.00	39806.27
1287.00	40062.95
1288.00	40066.07
1289.00	40156.57
1290.00	40140.97
1291.00	40203.38
1292.00	40350.06
1293.00	40439.00
1294.00	40387.50
1295.00	40317.29
1296.00	40285.30
1297.00	40167.49
1298.00	40027.06
1299.00	39900.67
1300.00	39856.98
1301.00	39873.37
1302.00	39825.00
1303.00	39830.46
1304.00	39614.35
1305.00	39435.69
1306.00	39227.38
1307.00	39196.95
1308.00	39331.92
1309.00	39383.41
1310.00	39441.15
1311.00	39440.37
1312.00	39643.99
1313.00	39672.08
1314.00	39639.31
1315.00	39514.48
1316.00	39516.82
1317.00	39506.68
1318.00	39254.68
1319.00	39085.39
1320.00	38739.77
1321.00	38685.93
1322.00	38605.58
1323.00	38611.82
1324.00	38753.03
1325.00	38585.29
1326.00	38569.69
1327.00	38416.77
1328.00	38319.25
1329.00	38224.07
1330.00	38044.63
1331.00	38211.59
1332.00	38281.80
1333.00	38501.81
1334.00	38634.44
1335.00	38845.09
1336.00	38952.76
1337.00	38970.70
1338.00	38982.40
1339.00	38963.68
1340.00	38958.22
1341.00	39164.18
1342.00	39154.04
1343.00	39104.11
1344.00	38900.48
1345.00	38791.26
1346.00	38774.88
1347.00	38693.74
1348.00	38526.00
1349.00	38447.20
1350.00	38266.20
1351.00	38352.80
1352.00	38168.68
1353.00	38088.32
1354.00	38038.39
1355.00	37914.34
1356.00	37898.73
1357.00	37801.21
1358.00	37938.52
1359.00	38030.58
1360.00	38025.90
1361.00	38078.96
1362.00	37993.92
1363.00	38012.64
1364.00	37656.88
1365.00	37528.15
1366.00	37298.00
1367.00	37318.28
1368.00	37104.51
1369.00	37097.49
1370.00	37139.62
1371.00	37135.72
1372.00	37120.90
1373.00	36911.81
1374.00	36890.74
1375.00	36712.08
1376.00	36799.46
1377.00	36644.99
1378.00	36472.57
1379.00	36239.29
1380.00	36154.26
1381.00	36111.35
1382.00	35957.65
1383.00	35962.33
1384.00	35924.10
1385.00	36118.37
1386.00	36160.50
1387.00	36388.31
1388.00	36290.79
1389.00	36310.29
1390.00	36203.41
1391.00	36070.78
1392.00	35832.04
1393.00	35568.34
1394.00	35385.78
1395.00	35251.59
1396.00	35180.59
1397.00	35172.79
1398.00	35305.42
1399.00	35385.78
1400.00	35537.13
1401.00	35333.51
1402.00	35077.61
1403.00	34457.37
1404.00	34137.49
1405.00	33915.14
1406.00	34263.10
1407.00	34547.09
1408.00	34844.34
1409.00	34981.65
1410.00	34964.48
1411.00	35037.82
1412.00	34911.43
1413.00	34907.53
1414.00	34728.09
1415.00	34508.86
1416.00	34264.66
1417.00	33918.26
1418.00	33585.91
1419.00	33239.51
1420.00	33024.96
1421.00	32889.99
1422.00	32820.55
1423.00	32773.74
1424.00	32808.85
1425.00	32902.47
1426.00	33042.90
1427.00	33267.59
1428.00	33322.99
1429.00	33438.45
1430.00	33535.98
1431.00	33709.18
1432.00	33857.41
1433.00	33900.32
1434.00	33997.06
1435.00	33893.30
1436.00	33686.55
1437.00	33500.87
1438.00	33196.60
1439.00	33132.62
1440.00	33106.88
1441.00	33382.28
1442.00	33532.08
1443.00	33497.75
1444.00	33497.75
1445.00	33475.12
1446.00	33507.11
1447.00	33563.28
1448.00	33581.23
1449.00	33640.52
1450.00	33525.05
1451.00	33362.78
1452.00	33156.81
1453.00	32914.17
1454.00	32646.57
1455.00	32356.35
1456.00	32006.83
1457.00	31958.45
1458.00	32027.11
1459.00	32279.11
1460.00	32307.19
1461.00	32318.12
1462.00	32169.88
1463.00	31917.89
1464.00	31587.87
1465.00	31427.15
1466.00	31429.49
1467.00	31332.75
1468.00	31385.02
1469.00	31417.01
1470.00	31512.97
1471.00	31422.47
1472.00	31236.01
1473.00	31028.48
1474.00	30870.89
1475.00	30676.62
1476.00	30621.23
1477.00	30506.54
1478.00	30431.65
1479.00	30228.80
1480.00	29999.43
1481.00	29951.06
1482.00	30058.72
1483.00	30157.02
1484.00	30125.82
1485.00	30036.88
1486.00	30113.33
1487.00	30120.35
1488.00	30238.94
1489.00	30301.36
1490.00	30341.92
1491.00	30275.61
1492.00	29926.09
1493.00	29493.09
1494.00	29070.23
1495.00	28570.92
1496.00	28109.05
1497.00	27668.25
1498.00	27498.17
1499.00	27626.90
1500.00	27853.94
1501.00	28286.93
1502.00	28659.86
1503.00	28783.91
1504.00	28712.91
1505.00	28659.08
1506.00	28575.60
1507.00	28423.47
1508.00	28204.24
1509.00	28126.22
1510.00	27937.41
1511.00	27704.92
1512.00	27635.49
1513.00	27848.47
1514.00	28191.75
1515.00	28234.66
1516.00	28275.23
1517.00	28279.91
1518.00	28325.94
1519.00	28222.18
1520.00	28003.73
1521.00	27776.70
1522.00	27598.04
1523.00	27586.33
1524.00	27639.39
1525.00	27799.32
1526.00	27889.82
1527.00	28137.14
1528.00	28246.37
1529.00	28301.76
1530.00	28340.77
1531.00	28279.91
1532.00	28225.30
1533.00	28066.14
1534.00	27934.29
1535.00	27788.40
1536.00	27675.27
1537.00	27680.74
1538.00	27697.90
1539.00	27644.07
1540.00	27625.34
1541.00	27649.53
1542.00	27814.15
1543.00	27915.57
1544.00	27964.72
1545.00	27911.67
1546.00	27900.75
1547.00	27835.99
1548.00	27752.51
1549.00	27595.70
1550.00	27410.01
1551.00	27217.31
1552.00	27044.89
1553.00	27116.67
1554.00	27223.55
1555.00	27372.57
1556.00	27584.77
1557.00	27704.14
1558.00	27859.40
1559.00	27823.51
1560.00	27768.12
1561.00	27811.81
1562.00	27849.25
1563.00	27966.28
1564.00	27771.24
1565.00	27679.18
1566.00	27637.83
1567.00	27757.19
1568.00	27752.51
1569.00	27606.62
1570.00	27430.30
1571.00	27285.97
1572.00	27146.31
1573.00	27013.68
1574.00	26896.66
1575.00	26916.16
1576.00	26801.47
1577.00	26660.26
1578.00	26562.74
1579.00	26636.08
1580.00	26590.05
1581.00	26543.24
1582.00	26483.94
1583.00	26434.01
1584.00	26291.24
1585.00	26103.21
1586.00	26052.50
1587.00	25969.80
1588.00	25960.44
1589.00	25965.90
1590.00	25928.45
1591.00	25917.53
1592.00	25805.97
1593.00	25830.93
1594.00	25896.47
1595.00	25954.20
1596.00	26052.50
1597.00	25994.77
1598.00	25982.29
1599.00	25859.02
1600.00	25895.69
1601.00	25766.18
1602.00	25710.00
1603.00	25489.99
1604.00	25495.46
1605.00	25434.60
1606.00	25467.37
1607.00	25434.60
1608.00	25560.99
1609.00	25508.72
1610.00	25507.16
1611.00	25299.63
1612.00	25217.71
1613.00	25099.90
1614.00	25062.46
1615.00	25053.87
1616.00	25195.09
1617.00	25246.58
1618.00	25169.34
1619.00	24919.68
1620.00	24602.93
1621.00	24557.68
1622.00	24489.81
1623.00	24530.37
1624.00	24372.78
1625.00	24364.98
1626.00	24332.21
1627.00	24180.07
1628.00	23950.70
1629.00	23779.84
1630.00	23849.28
1631.00	23744.73
1632.00	23846.16
1633.00	23754.88
1634.00	23692.46
1635.00	23490.40
1636.00	23572.32
1637.00	23727.57
1638.00	23701.04
1639.00	23442.81
1640.00	23273.51
1641.00	23125.27
1642.00	22836.61
1643.00	22576.03
1644.00	22461.34
1645.00	22625.96
1646.00	22891.22
1647.00	23160.38
1648.00	23528.63
1649.00	23797.79
1650.00	23971.77
1651.00	23922.62
1652.00	23971.77
1653.00	23992.05
1654.00	24012.34
1655.00	23793.11
1656.00	23443.59
1657.00	23092.51
1658.00	22877.96
1659.00	22803.06
1660.00	22879.52
1661.00	23030.87
1662.00	23208.75
1663.00	23247.76
1664.00	23406.92
1665.00	23460.75
1666.00	23470.89
1667.00	23383.51
1668.00	23332.80
1669.00	23510.68
1670.00	23406.14
1671.00	23397.56
1672.00	23334.36
1673.00	23340.60
1674.00	23223.58
1675.00	23042.57
1676.00	22877.96
1677.00	22877.96
1678.00	22660.29
1679.00	22455.10
1680.00	22238.99
1681.00	22184.38
1682.00	21989.33
1683.00	21738.90
1684.00	21440.87
1685.00	21034.39
1686.00	20364.22
1687.00	19510.71
1688.00	18728.19
1689.00	18148.51
1690.00	17827.86
1691.00	17943.33
1692.00	18323.27
1693.00	18935.71
1694.00	19547.37
1695.00	20130.17
1696.00	20572.53
1697.00	20971.20
1698.00	21262.99
1699.00	21434.63
1700.00	21479.88
1701.00	21669.46
1702.00	21831.74
1703.00	22079.83
1704.00	21964.37
1705.00	21898.83
1706.00	21759.18
1707.00	21697.55
1708.00	21742.80
1709.00	21671.02
1710.00	21695.99
1711.00	21613.29
1712.00	21609.39
1713.00	21567.26
1714.00	21611.73
1715.00	21693.65
1716.00	21773.22
1717.00	21750.60
1718.00	21688.18
1719.00	21642.93
1720.00	21586.76
1721.00	21499.38
1722.00	21493.14
1723.00	21532.93
1724.00	21579.74
1725.00	21629.67
1726.00	21570.38
1727.00	21627.33
1728.00	21603.92
1729.00	21660.88
1730.00	21505.62
1731.00	21382.35
1732.00	21261.43
1733.00	21356.61
1734.00	21223.20
1735.00	21106.17
1736.00	20913.47
1737.00	20949.36
1738.00	20902.54
1739.00	20819.07
1740.00	20659.91
1741.00	20602.96
1742.00	20546.00
1743.00	20531.96
1744.00	20514.80
1745.00	20453.94
1746.00	20421.17
1747.00	20355.64
1748.00	20442.24
1749.00	20421.17
1750.00	20531.96
1751.00	20375.14
1752.00	20414.15
1753.00	20261.24
1754.00	20340.04
1755.00	20235.49
1756.00	20245.63
1757.00	20063.07
1758.00	20003.00
1759.00	19909.38
1760.00	19836.82
1761.00	19842.28
1762.00	19802.49
1763.00	19799.37
1764.00	19708.87
1765.00	19674.54
1766.00	19784.55
1767.00	19761.92
1768.00	19637.09
1769.00	19456.09
1770.00	19405.38
1771.00	19411.62
1772.00	19450.63
1773.00	19444.39
1774.00	19403.82
1775.00	19325.80
1776.00	19248.57
1777.00	19243.88
1778.00	19335.17
1779.00	19413.18
1780.00	19413.18
1781.00	19297.72
1782.00	19193.17
1783.00	19007.49
1784.00	18867.84
1785.00	18846.77
1786.00	18811.67
1787.00	18750.03
1788.00	18601.02
1789.00	18575.27
1790.00	18498.81
1791.00	18422.36
1792.00	18352.92
1793.00	18224.97
1794.00	18198.45
1795.00	18145.39
1796.00	18162.56
1797.00	18168.02
1798.00	18103.26
1799.00	18015.10
1800.00	17767.01
1801.00	17696.79
1802.00	17706.93
1803.00	17815.38
1804.00	17849.71
1805.00	17852.05
1806.00	17770.13
1807.00	17812.26
1808.00	17813.04
1809.00	17800.55
1810.00	17724.88
1811.00	17614.87
1812.00	17646.08
1813.00	17582.10
1814.00	17607.07
1815.00	17507.99
1816.00	17371.46
1817.00	17275.49
1818.00	17176.41
1819.00	17174.85
1820.00	17136.62
1821.00	16972.00
1822.00	16943.14
1823.00	16828.45
1824.00	16943.92
1825.00	16865.90
1826.00	16848.74
1827.00	16798.02
1828.00	16747.31
1829.00	16791.00
1830.00	16703.62
1831.00	16756.68
1832.00	16751.99
1833.00	16754.33
1834.00	16695.82
1835.00	16469.57
1836.00	16265.94
1837.00	16120.05
1838.00	16121.61
1839.00	16219.13
1840.00	16162.96
1841.00	16132.53
1842.00	16092.74
1843.00	16074.02
1844.00	16024.09
1845.00	15864.93
1846.00	15749.46
1847.00	15687.05
1848.00	15640.24
1849.00	15595.77
1850.00	15502.15
1851.00	15516.97
1852.00	15510.73
1853.00	15485.76
1854.00	15395.26
1855.00	15321.93
1856.00	15269.66
1857.00	15246.25
1858.00	15225.97
1859.00	15136.24
1860.00	15077.73
1861.00	15111.28
1862.00	15103.48
1863.00	15073.83
1864.00	14900.63
1865.00	14835.10
1866.00	14786.72
1867.00	14787.50
1868.00	14775.02
1869.00	14731.33
1870.00	14704.81
1871.00	14647.07
1872.00	14589.34
1873.00	14487.14
1874.00	14494.94
1875.00	14462.95
1876.00	14407.56
1877.00	14267.13
1878.00	14150.88
1879.00	14086.12
1880.00	13987.04
1881.00	14015.13
1882.00	14018.25
1883.00	13969.10
1884.00	13909.02
1885.00	13737.38
1886.00	13679.65
1887.00	13458.08
1888.00	13331.69
1889.00	13240.41
1890.00	13223.25
1891.00	13310.63
1892.00	13327.01
1893.00	13304.39
1894.00	13244.31
1895.00	13156.15
1896.00	13122.60
1897.00	13085.16
1898.00	13117.92
1899.00	13075.79
1900.00	12921.32
1901.00	12728.61
1902.00	12617.83
1903.00	12590.52
1904.00	12300.30
1905.00	11700.34
1906.00	10768.80
1907.00	9865.36
1908.00	9064.89
1909.00	8470.40
1910.00	8127.90
1911.00	7877.46
1912.00	7877.46
1913.00	8026.48
1914.00	8415.79
1915.00	8869.07
1916.00	9298.17
1917.00	9727.27
1918.00	9910.61
1919.00	10044.02
1920.00	9969.12
1921.00	9901.25
1922.00	9661.73
1923.00	9507.26
1924.00	9450.30
1925.00	9362.92
1926.00	9283.34
1927.00	9210.79
1928.00	9305.19
1929.00	9386.33
1930.00	9441.72
1931.00	9546.26
1932.00	9628.96
1933.00	9654.71
1934.00	9646.13
1935.00	9733.51
1936.00	9806.06
1937.00	9903.59
1938.00	9928.55
1939.00	10037.00
1940.00	10084.59
1941.00	10111.89
1942.00	10091.61
1943.00	10011.25
1944.00	9974.58
1945.00	9950.40
1946.00	9934.01
1947.00	9856.78
1948.00	9797.48
1949.00	9853.66
1950.00	9912.17
1951.00	9953.52
1952.00	9926.99
1953.00	9843.51
1954.00	9813.09
1955.00	9710.10
1956.00	9646.13
1957.00	9557.97
1958.00	9462.79
1959.00	9427.68
1960.00	9330.16
1961.00	9311.43
1962.00	9200.65
1963.00	9113.27
1964.00	9053.97
1965.00	9085.96
1966.00	9126.53
1967.00	9139.01
1968.00	9100.00
1969.00	9104.68
1970.00	9039.15
1971.00	9017.30
1972.00	8955.67
1973.00	8954.89
1974.00	8916.66
1975.00	8919.00
1976.00	8915.88
1977.00	8913.54
1978.00	8875.31
1979.00	8926.02
1980.00	9022.77
1981.00	9137.45
1982.00	9090.64
1983.00	9058.65
1984.00	8994.68
1985.00	8974.39
1986.00	8822.26
1987.00	8722.40
1988.00	8647.50
1989.00	8620.19
1990.00	8583.52
1991.00	8508.63
1992.00	8451.67
1993.00	8364.29
1994.00	8370.54
1995.00	8290.96
1996.00	8241.81
1997.00	8157.55
1998.00	8113.08
1999.00	8016.33
2000.00	7939.88
2001.00	7914.13
2002.00	7932.86
2003.00	7946.12
2004.00	7878.24
2005.00	7811.93
2006.00	7687.88
2007.00	7651.21
2008.00	7662.91
2009.00	7627.03
2010.00	7558.37
2011.00	7460.85
2012.00	7461.63
2013.00	7413.26
2014.00	7345.38
2015.00	7302.47
2016.00	7261.90
2017.00	7200.27
2018.00	7157.36
2019.00	7239.28
2020.00	7241.62
2021.00	7195.59
2022.00	7112.11
2023.00	7103.53
2024.00	7107.43
2025.00	7109.77
2026.00	7082.46
2027.00	7044.23
2028.00	7043.45
2029.00	7094.94
2030.00	7105.09
2031.00	7068.42
2032.00	7027.85
2033.00	7048.13
2034.00	7023.95
2035.00	6931.89
2036.00	6838.27
2037.00	6848.41
2038.00	6895.22
2039.00	6855.43
2040.00	6800.82
2041.00	6793.79
2042.00	6842.95
2043.00	6790.67
2044.00	6711.10
2045.00	6630.74
2046.00	6605.77
2047.00	6572.22
>>>>>End Processed Spectral Data<<<<<
