SpectraSuite Data File
++++++++++++++++++++++++++++++++++++
Date: Thu Nov 16 13:32:51 EST 2017
User: cheriyan
Dark Spectrum Present: No
Reference Spectrum Present: No
Number of Sampled Component Spectra: 1
Spectrometers: USB2+H05261
Integration Time (usec): 90000 (USB2+H05261)
Spectra Averaged: 1 (USB2+H05261)
Boxcar Smoothing: 1 (USB2+H05261)
Correct for Electrical Dark: No (USB2+H05261)
Strobe/Lamp Enabled: No (USB2+H05261)
Correct for Detector Non-linearity: No (USB2+H05261)
Correct for Stray Light: No (USB2+H05261)
Number of Pixels in Processed Spectrum: 2048
>>>>>Begin Processed Spectral Data<<<<<
0.00	407.25
1.00	407.25
2.00	352.64
3.00	306.61
4.00	266.82
5.00	287.11
6.00	279.30
7.00	258.24
8.00	237.95
9.00	226.25
10.00	211.43
11.00	217.67
12.00	210.65
13.00	231.71
14.00	237.17
15.00	253.56
16.00	266.82
17.00	288.67
18.00	308.95
19.00	323.77
20.00	299.59
21.00	288.67
22.00	319.09
23.00	788.76
24.00	2470.05
25.00	4226.23
26.00	5606.36
27.00	5734.31
28.00	5617.29
29.00	5400.40
30.00	5176.48
31.00	5053.22
32.00	5104.71
33.00	5204.57
34.00	5239.68
35.00	5068.04
36.00	4805.90
37.00	4652.20
38.00	4598.37
39.00	4749.73
40.00	4837.11
41.00	4858.17
42.00	4816.82
43.00	4791.08
44.00	4889.38
45.00	4988.46
46.00	5246.70
47.00	5552.53
48.00	5821.69
49.00	5861.48
50.00	5833.40
51.00	5743.67
52.00	5863.04
53.00	5895.81
54.00	6081.49
55.00	6249.23
56.00	6503.57
57.00	6741.52
58.00	6998.20
59.00	7254.88
60.00	7390.63
61.00	7403.11
62.00	7258.78
63.00	7078.56
64.00	6773.51
65.00	6517.61
66.00	6224.26
67.00	6079.93
68.00	5959.78
69.00	6042.48
70.00	6177.45
71.00	6464.56
72.00	6680.67
73.00	6910.82
74.00	6998.98
75.00	6925.65
76.00	6734.50
77.00	6464.56
78.00	6201.64
79.00	5875.52
80.00	5578.28
81.00	5306.77
82.00	5070.38
83.00	4819.16
84.00	4663.13
85.00	4542.20
86.00	4485.25
87.00	4487.59
88.00	4518.79
89.00	4656.11
90.00	4870.65
91.00	5188.19
92.00	5642.25
93.00	6042.48
94.00	6431.79
95.00	6601.87
96.00	6633.08
97.00	6544.14
98.00	6342.85
99.00	6193.06
100.00	6088.51
101.00	6188.38
102.00	6386.54
103.00	6521.51
104.00	6573.00
105.00	6519.95
106.00	6513.71
107.00	6489.53
108.00	6505.13
109.00	6543.36
110.00	6586.27
111.00	6548.82
112.00	6566.76
113.00	6551.94
114.00	6627.62
115.00	6768.05
116.00	7059.06
117.00	7448.36
118.00	7820.51
119.00	8151.31
120.00	8404.08
121.00	8465.72
122.00	8461.82
123.00	8455.58
124.00	8596.01
125.00	8777.01
126.00	9007.16
127.00	9263.06
128.00	9475.27
129.00	9455.76
130.00	9268.52
131.00	8966.59
132.00	8665.44
133.00	8276.13
134.00	7759.66
135.00	7101.97
136.00	6292.92
137.00	5488.56
138.00	4860.51
139.00	4631.92
140.00	4813.70
141.00	5416.78
142.00	6165.75
143.00	6944.37
144.00	7645.75
145.00	8309.68
146.00	8950.21
147.00	9436.26
148.00	9754.57
149.00	10040.12
150.00	10032.32
151.00	9886.42
152.00	9316.89
153.00	8584.30
154.00	7661.35
155.00	6797.70
156.00	6118.94
157.00	5860.70
158.00	6137.66
159.00	6935.79
160.00	7966.40
161.00	9121.85
162.00	10164.95
163.00	11073.07
164.00	11670.69
165.00	12180.15
166.00	12566.34
167.00	12907.27
168.00	13271.62
169.00	13607.87
170.00	13811.50
171.00	13844.27
172.00	13926.97
173.00	13968.32
174.00	14024.49
175.00	13919.17
176.00	14046.34
177.00	14157.12
178.00	14523.02
179.00	14888.15
180.00	15183.06
181.00	15298.52
182.00	15279.80
183.00	15388.24
184.00	15482.64
185.00	15565.34
186.00	15478.74
187.00	15475.62
188.00	15308.66
189.00	15083.19
190.00	14895.17
191.00	14977.87
192.00	15286.04
193.00	15572.36
194.00	15556.76
195.00	15446.76
196.00	15145.61
197.00	15020.00
198.00	15127.66
199.00	15313.35
200.00	15591.87
201.00	15523.99
202.00	15454.56
203.00	15197.10
204.00	15050.42
205.00	14939.64
206.00	14835.10
207.00	14924.04
208.00	14978.65
209.00	15221.28
210.00	15325.05
211.00	15413.21
212.00	15384.34
213.00	15539.60
214.00	15803.30
215.00	16129.41
216.00	16436.80
217.00	16716.11
218.00	16970.44
219.00	17219.32
220.00	17311.38
221.00	17252.09
222.00	16847.18
223.00	16277.65
224.00	15776.77
225.00	15374.98
226.00	15218.94
227.00	15404.63
228.00	15753.37
229.00	16387.65
230.00	16896.33
231.00	17416.71
232.00	17877.79
233.00	18224.97
234.00	18434.06
235.00	18557.33
236.00	18676.69
237.00	18687.62
238.00	18662.65
239.00	18451.22
240.00	18402.07
241.00	18209.37
242.00	18184.40
243.00	18175.82
244.00	18381.79
245.00	18624.42
246.00	18899.05
247.00	19021.53
248.00	18962.24
249.00	18887.34
250.00	18890.46
251.00	19031.68
252.00	19080.05
253.00	19051.18
254.00	19115.16
255.00	19375.73
256.00	19660.50
257.00	20097.40
258.00	20408.69
259.00	20607.64
260.00	20474.23
261.00	20156.69
262.00	19756.46
263.00	19332.82
264.00	19259.49
265.00	19388.22
266.00	19603.55
267.00	19700.29
268.00	19651.92
269.00	19751.00
270.00	19585.60
271.00	19822.78
272.00	20014.70
273.00	20482.03
274.00	20451.60
275.00	20447.70
276.00	20165.28
277.00	19905.48
278.00	19616.03
279.00	19705.75
280.00	20261.24
281.00	20796.44
282.00	21273.91
283.00	21529.03
284.00	21887.91
285.00	21855.14
286.00	21782.59
287.00	21320.72
288.00	21116.31
289.00	20606.86
290.00	20134.07
291.00	19529.43
292.00	19268.07
293.00	19472.48
294.00	19988.18
295.00	20392.31
296.00	20529.62
297.00	20452.38
298.00	20561.61
299.00	20613.88
300.00	20699.70
301.00	20515.58
302.00	20499.19
303.00	20511.67
304.00	20592.81
305.00	20499.97
306.00	20329.11
307.00	20197.26
308.00	20067.75
309.00	19894.55
310.00	19952.29
311.00	20175.42
312.00	20282.30
313.00	20140.31
314.00	19556.74
315.00	19119.06
316.00	18778.12
317.00	18862.38
318.00	19239.20
319.00	19516.17
320.00	19956.19
321.00	19886.75
322.00	19800.93
323.00	19477.94
324.00	19380.42
325.00	19232.96
326.00	19159.63
327.00	18922.45
328.00	18452.78
329.00	17682.75
330.00	16897.11
331.00	15937.49
332.00	15229.87
333.00	14670.48
334.00	14625.23
335.00	14782.82
336.00	15426.47
337.00	16544.47
338.00	18309.23
339.00	20131.73
340.00	21692.09
341.00	22296.72
342.00	22014.30
343.00	21318.38
344.00	20746.51
345.00	20895.52
346.00	21351.93
347.00	21983.09
348.00	22224.17
349.00	22137.57
350.00	21422.14
351.00	20667.71
352.00	19932.00
353.00	19922.64
354.00	20183.22
355.00	20938.43
356.00	21596.12
357.00	22276.44
358.00	22402.83
359.00	22608.79
360.00	22753.91
361.00	23378.05
362.00	23692.46
363.00	24017.80
364.00	24230.79
365.00	24233.13
366.00	24058.37
367.00	23697.92
368.00	23564.51
369.00	23265.71
370.00	23095.63
371.00	22821.00
372.00	22627.52
373.00	22235.87
374.00	21654.64
375.00	21291.85
376.00	20963.40
377.00	21090.57
378.00	21398.74
379.00	22121.96
380.00	22763.27
381.00	23435.78
382.00	23811.05
383.00	24166.03
384.00	24176.95
385.00	23921.06
386.00	23686.22
387.00	23687.00
388.00	24048.22
389.00	24737.12
390.00	25404.17
391.00	25961.22
392.00	26267.83
393.00	26545.58
394.00	26776.51
395.00	26950.49
396.00	27119.01
397.00	27505.20
398.00	27705.70
399.00	27853.16
400.00	27651.87
401.00	27630.80
402.00	27531.72
403.00	27766.56
404.00	27954.58
405.00	28219.06
406.00	28334.53
407.00	28125.44
408.00	27781.38
409.00	27822.73
410.00	28139.48
411.00	28354.03
412.00	27779.04
413.00	27108.08
414.00	26402.80
415.00	25969.80
416.00	25791.14
417.00	25921.43
418.00	26384.86
419.00	26847.50
420.00	27257.10
421.00	27735.35
422.00	28214.38
423.00	28600.57
424.00	28758.16
425.00	28875.19
426.00	28804.19
427.00	28639.58
428.00	28242.46
429.00	28375.09
430.00	28525.67
431.00	28645.04
432.00	28634.11
433.00	28499.92
434.00	28577.94
435.00	28662.98
436.00	28918.10
437.00	29176.34
438.00	29457.98
439.00	29763.03
440.00	30224.90
441.00	30572.86
442.00	30941.10
443.00	31080.75
444.00	30989.47
445.00	30629.03
446.00	30263.13
447.00	30281.85
448.00	30263.91
449.00	30107.09
450.00	29711.54
451.00	29308.97
452.00	28749.58
453.00	28062.24
454.00	27594.92
455.00	27568.39
456.00	27889.04
457.00	28543.61
458.00	28948.53
459.00	29300.39
460.00	29505.57
461.00	29617.92
462.00	29756.01
463.00	29530.54
464.00	29449.40
465.00	29128.75
466.00	29175.56
467.00	29397.91
468.00	29653.81
469.00	30005.67
470.00	30432.43
471.00	30920.82
472.00	31000.40
473.00	31065.93
474.00	31126.00
475.00	31238.35
476.00	31260.98
477.00	31495.03
478.00	31752.49
479.00	31979.52
480.00	31611.28
481.00	31172.03
482.00	30611.87
483.00	30273.27
484.00	30418.38
485.00	30686.76
486.00	30970.75
487.00	30872.45
488.00	30776.48
489.00	30944.22
490.00	30889.61
491.00	30891.95
492.00	30823.30
493.00	31008.98
494.00	31037.06
495.00	31242.25
496.00	31573.05
497.00	32013.85
498.00	32269.75
499.00	32336.06
500.00	32236.98
501.00	32172.22
502.00	32296.27
503.00	32545.15
504.00	32819.77
505.00	32829.91
506.00	32875.94
507.00	32904.81
508.00	33021.84
509.00	33005.45
510.00	32962.54
511.00	32739.41
512.00	32652.81
513.00	32420.32
514.00	32326.70
515.00	32226.84
516.00	32036.47
517.00	31831.29
518.00	31548.86
519.00	31338.99
520.00	31543.40
521.00	31667.45
522.00	31868.73
523.00	32138.68
524.00	32341.52
525.00	32669.20
526.00	32266.63
527.00	31935.83
528.00	31336.65
529.00	30802.23
530.00	30546.33
531.00	30568.96
532.00	30985.57
533.00	31309.35
534.00	31565.24
535.00	31677.59
536.00	31575.39
537.00	31394.39
538.00	31520.77
539.00	31718.94
540.00	31914.76
541.00	31780.57
542.00	31917.89
543.00	32141.02
544.00	32327.48
545.00	32235.42
546.00	31735.32
547.00	31402.97
548.00	30985.57
549.00	31148.63
550.00	31051.11
551.00	31336.65
552.00	31385.02
553.00	31687.73
554.00	31780.57
555.00	32141.80
556.00	32505.36
557.00	33042.12
558.00	33568.74
559.00	34020.47
560.00	34391.83
561.00	34334.88
562.00	33932.31
563.00	33351.85
564.00	32852.54
565.00	32966.45
566.00	33191.14
567.00	33490.73
568.00	33599.95
569.00	33555.48
570.00	33983.02
571.00	34462.05
572.00	34866.96
573.00	34904.41
574.00	34746.03
575.00	34803.77
576.00	34947.32
577.00	34934.06
578.00	34850.58
579.00	34510.42
580.00	34547.87
581.00	34617.30
582.00	34691.42
583.00	34636.03
584.00	34791.28
585.00	35229.74
586.00	35802.39
587.00	36096.52
588.00	36362.56
589.00	36760.45
590.00	37179.41
591.00	37688.87
592.00	38009.52
593.00	38209.25
594.00	37971.29
595.00	37649.86
596.00	37671.70
597.00	38064.91
598.00	38659.41
599.00	39179.79
600.00	39624.49
601.00	39774.28
602.00	39839.82
603.00	39705.63
604.00	39959.19
605.00	40460.06
606.00	40589.57
607.00	40616.88
608.00	40505.31
609.00	41015.55
610.00	41353.37
611.00	41606.92
612.00	41897.15
613.00	42355.11
614.00	42604.77
615.00	42626.62
616.00	42504.13
617.00	42524.41
618.00	42680.45
619.00	42731.94
620.00	42951.17
621.00	43064.30
622.00	43379.49
623.00	43665.03
624.00	43626.03
625.00	43505.88
626.00	43282.75
627.00	43341.26
628.00	43492.61
629.00	44001.29
630.00	44541.95
631.00	44487.34
632.00	43515.24
633.00	42560.30
634.00	41241.02
635.00	39633.85
636.00	37744.26
637.00	36912.59
638.00	37381.48
639.00	38538.48
640.00	39832.02
641.00	41023.35
642.00	42093.75
643.00	42934.79
644.00	43710.28
645.00	44389.04
646.00	45282.34
647.00	46129.62
648.00	46718.65
649.00	46975.33
650.00	46791.99
651.00	46561.84
652.00	46071.89
653.00	46018.05
654.00	46440.13
655.00	47484.01
656.00	48587.18
657.00	49468.78
658.00	49993.06
659.00	50239.60
660.00	50344.92
661.00	50364.43
662.00	50327.76
663.00	50151.44
664.00	49992.28
665.00	49917.39
666.00	49973.56
667.00	49886.96
668.00	49368.92
669.00	48683.92
670.00	48129.22
671.00	48094.89
672.00	48780.67
673.00	49801.14
674.00	50845.80
675.00	51316.25
676.00	51543.28
677.00	51554.98
678.00	51349.79
679.00	51001.05
680.00	50969.07
681.00	51310.78
682.00	51913.86
683.00	52503.68
684.00	53144.20
685.00	53588.91
686.00	53813.60
687.00	53735.58
688.00	53528.83
689.00	53176.19
690.00	52857.10
691.00	52690.92
692.00	52753.33
693.00	53076.33
694.00	53528.83
695.00	53879.13
696.00	54004.74
697.00	53959.49
698.00	54060.13
699.00	54209.15
700.00	54461.93
701.00	54646.05
702.00	54544.62
703.00	54198.23
704.00	53536.63
705.00	53012.35
706.00	52833.69
707.00	53017.03
708.00	53565.50
709.00	54043.75
710.00	54467.39
711.00	54792.72
712.00	54876.20
713.00	54862.94
714.00	54622.64
715.00	54338.66
716.00	53890.05
717.00	53514.01
718.00	53262.79
719.00	53256.55
720.00	53183.21
721.00	53075.55
722.00	53066.97
723.00	53047.46
724.00	53063.07
725.00	52829.01
726.00	52808.73
727.00	53098.95
728.00	53398.54
729.00	53684.87
730.00	53878.35
731.00	54178.72
732.00	54456.46
733.00	54532.92
734.00	54475.19
735.00	54174.04
736.00	53736.36
737.00	53219.88
738.00	52861.78
739.00	53024.84
740.00	53464.86
741.00	54129.57
742.00	54423.70
743.00	54599.24
744.00	54706.90
745.00	54994.79
746.00	55327.14
747.00	55746.88
748.00	55999.66
749.00	56280.52
750.00	56198.60
751.00	55985.61
752.00	55691.49
753.00	55459.77
754.00	55396.58
755.00	55228.06
756.00	55192.95
757.00	54969.04
758.00	54844.99
759.00	54543.06
760.00	54278.58
761.00	54186.52
762.00	54277.80
763.00	54694.42
764.00	54955.00
765.00	55407.50
766.00	55708.65
767.00	56161.15
768.00	56236.05
769.00	56225.91
770.00	55998.10
771.00	55732.84
772.00	55597.87
773.00	55610.35
774.00	55788.23
775.00	55825.68
776.00	55743.76
777.00	55774.97
778.00	55873.27
779.00	56167.40
780.00	56335.13
781.00	56699.48
782.00	56830.55
783.00	56855.51
784.00	56544.22
785.00	56158.81
786.00	55849.08
787.00	55540.91
788.00	55424.67
789.00	55453.53
790.00	55489.42
791.00	55662.62
792.00	55560.42
793.00	55483.18
794.00	55137.56
795.00	54902.73
796.00	54840.31
797.00	54982.30
798.00	55185.93
799.00	55345.09
800.00	55460.55
801.00	55556.52
802.00	55629.07
803.00	55600.21
804.00	55739.08
805.00	56005.12
806.00	56155.69
807.00	55890.43
808.00	55183.59
809.00	54139.71
810.00	52860.22
811.00	51419.23
812.00	50100.73
813.00	49443.04
814.00	50052.36
815.00	51437.95
816.00	52981.15
817.00	53695.79
818.00	53663.80
819.00	53099.73
820.00	52435.02
821.00	52248.56
822.00	52449.06
823.00	53183.21
824.00	53784.73
825.00	54297.31
826.00	54568.03
827.00	54938.61
828.00	55369.27
829.00	55831.14
830.00	56065.97
831.00	56087.82
832.00	55833.48
833.00	55618.15
834.00	55413.74
835.00	55405.16
836.00	55577.58
837.00	55906.04
838.00	56172.08
839.00	56378.82
840.00	56463.08
841.00	56544.22
842.00	56576.99
843.00	56412.37
844.00	56021.50
845.00	55549.49
846.00	55214.02
847.00	55153.16
848.00	55232.74
849.00	55457.43
850.00	55753.12
851.00	56203.28
852.00	56635.50
853.00	56978.00
854.00	57094.25
855.00	57205.03
856.00	57174.61
857.00	57047.44
858.00	56891.40
859.00	56669.05
860.00	56620.68
861.00	56615.22
862.00	56790.76
863.00	56895.30
864.00	56660.47
865.00	56097.18
866.00	55308.42
867.00	54511.86
868.00	53699.69
869.00	53112.22
870.00	52670.64
871.00	52711.20
872.00	53006.89
873.00	53814.38
874.00	54588.31
875.00	55266.29
876.00	55585.38
877.00	55741.42
878.00	55817.88
879.00	55972.35
880.00	56311.73
881.00	56740.83
882.00	57073.96
883.00	57286.17
884.00	57145.74
885.00	56837.57
886.00	56317.19
887.00	55978.59
888.00	55824.12
889.00	55882.63
890.00	56091.72
891.00	56472.45
892.00	56836.01
893.00	56896.08
894.00	56896.86
895.00	56948.35
896.00	57038.86
897.00	56949.13
898.00	56729.90
899.00	56487.27
900.00	56190.02
901.00	55725.81
902.00	55308.42
903.00	54751.37
904.00	54335.54
905.00	54139.71
906.00	54291.85
907.00	54717.82
908.00	55063.44
909.00	55550.27
910.00	55771.85
911.00	55798.37
912.00	55431.69
913.00	55251.47
914.00	55235.86
915.00	55448.07
916.00	55522.19
917.00	55732.06
918.00	55931.78
919.00	56114.34
920.00	56395.21
921.00	56620.68
922.00	56848.49
923.00	56743.95
924.00	56492.73
925.00	56052.71
926.00	55649.36
927.00	55164.09
928.00	54754.49
929.00	54499.37
930.00	54510.30
931.00	54704.56
932.00	55042.38
933.00	55384.88
934.00	55619.71
935.00	55539.35
936.00	55515.17
937.00	55539.35
938.00	55499.56
939.00	55443.39
940.00	55302.18
941.00	55175.79
942.00	54946.42
943.00	54661.65
944.00	54441.64
945.00	54209.15
946.00	54138.93
947.00	53958.71
948.00	53836.22
949.00	53609.19
950.00	53548.34
951.00	53346.27
952.00	53202.72
953.00	53210.52
954.00	53471.10
955.00	53822.18
956.00	54108.50
957.00	54311.35
958.00	54471.29
959.00	54499.37
960.00	54268.44
961.00	53996.16
962.00	54032.05
963.00	54112.41
964.00	54230.21
965.00	54035.95
966.00	53992.26
967.00	54044.53
968.00	54233.33
969.00	54443.20
970.00	54858.26
971.00	55159.41
972.00	55378.64
973.00	55096.99
974.00	54849.67
975.00	54627.32
976.00	54571.15
977.00	54592.22
978.00	54583.63
979.00	54546.18
980.00	54380.79
981.00	54492.35
982.00	54450.22
983.00	54468.95
984.00	54312.13
985.00	54242.70
986.00	54277.02
987.00	54193.54
988.00	54273.12
989.00	54111.63
990.00	54033.61
991.00	53700.47
992.00	53394.64
993.00	53084.13
994.00	53076.33
995.00	53329.11
996.00	53685.65
997.00	54205.25
998.00	54400.29
999.00	54464.27
1000.00	54371.42
1001.00	54348.80
1002.00	54292.63
1003.00	54150.63
1004.00	54112.41
1005.00	54131.91
1006.00	54072.62
1007.00	53984.46
1008.00	53925.94
1009.00	53763.67
1010.00	53700.47
1011.00	53535.85
1012.00	53588.91
1013.00	53338.47
1014.00	53380.60
1015.00	53291.66
1016.00	53613.09
1017.00	53810.48
1018.00	54115.53
1019.00	54147.51
1020.00	53954.03
1021.00	53737.14
1022.00	53439.11
1023.00	53145.76
1024.00	52927.31
1025.00	52914.05
1026.00	53182.43
1027.00	53372.02
1028.00	53548.34
1029.00	53547.56
1030.00	53552.24
1031.00	53772.25
1032.00	53798.77
1033.00	53920.48
1034.00	53820.62
1035.00	53929.84
1036.00	53880.69
1037.00	53854.95
1038.00	53855.73
1039.00	53787.07
1040.00	53634.94
1041.00	53262.79
1042.00	53048.24
1043.00	52942.92
1044.00	52988.95
1045.00	53040.44
1046.00	52875.04
1047.00	52662.83
1048.00	52524.74
1049.00	52332.04
1050.00	52385.87
1051.00	52258.70
1052.00	52435.02
1053.00	52538.79
1054.00	52657.37
1055.00	52532.54
1056.00	52317.21
1057.00	51965.35
1058.00	51606.47
1059.00	51128.22
1060.00	50906.65
1061.00	50830.19
1062.00	50908.21
1063.00	51001.05
1064.00	50969.07
1065.00	50965.17
1066.00	50930.84
1067.00	50937.86
1068.00	51025.24
1069.00	51300.64
1070.00	51689.17
1071.00	52219.69
1072.00	52540.35
1073.00	52775.18
1074.00	52553.61
1075.00	52037.91
1076.00	51478.52
1077.00	51160.99
1078.00	51087.65
1079.00	51169.57
1080.00	51249.15
1081.00	51341.21
1082.00	51373.20
1083.00	51537.04
1084.00	51709.46
1085.00	51953.65
1086.00	51914.64
1087.00	51836.62
1088.00	51530.01
1089.00	51277.24
1090.00	51093.89
1091.00	51060.35
1092.00	51020.56
1093.00	50929.28
1094.00	51056.45
1095.00	51077.51
1096.00	51038.50
1097.00	50810.69
1098.00	50636.71
1099.00	50479.11
1100.00	50202.15
1101.00	49911.92
1102.00	49586.59
1103.00	49382.18
1104.00	49297.14
1105.00	49432.89
1106.00	49442.26
1107.00	49677.87
1108.00	49904.90
1109.00	50203.71
1110.00	50384.71
1111.00	50427.62
1112.00	50552.45
1113.00	50582.88
1114.00	50505.64
1115.00	50227.12
1116.00	49752.77
1117.00	49260.48
1118.00	48841.52
1119.00	48563.00
1120.00	48537.25
1121.00	48531.79
1122.00	48709.67
1123.00	48876.63
1124.00	49074.01
1125.00	48964.01
1126.00	48830.60
1127.00	48735.41
1128.00	48563.00
1129.00	48306.32
1130.00	47878.00
1131.00	47564.37
1132.00	47121.23
1133.00	46714.75
1134.00	46632.05
1135.00	46666.38
1136.00	46927.74
1137.00	47040.09
1138.00	47366.98
1139.00	47743.03
1140.00	48098.79
1141.00	48343.77
1142.00	48419.44
1143.00	48377.31
1144.00	48250.92
1145.00	48094.89
1146.00	48143.26
1147.00	48214.26
1148.00	48241.56
1149.00	48135.46
1150.00	47944.31
1151.00	47898.28
1152.00	47829.63
1153.00	47895.94
1154.00	47619.76
1155.00	47275.70
1156.00	46892.63
1157.00	46830.22
1158.00	46625.03
1159.00	46568.86
1160.00	46295.02
1161.00	46261.47
1162.00	45963.44
1163.00	45859.68
1164.00	45826.91
1165.00	45963.44
1166.00	46012.59
1167.00	46215.44
1168.00	46430.77
1169.00	46673.40
1170.00	46596.95
1171.00	46371.47
1172.00	46177.21
1173.00	46067.98
1174.00	45937.69
1175.00	45824.57
1176.00	45558.53
1177.00	45210.57
1178.00	44724.52
1179.00	44550.54
1180.00	44472.52
1181.00	44580.18
1182.00	44514.65
1183.00	44637.92
1184.00	44784.59
1185.00	45112.27
1186.00	45339.30
1187.00	45517.18
1188.00	45562.43
1189.00	45517.96
1190.00	45534.34
1191.00	45585.05
1192.00	45477.39
1193.00	45355.68
1194.00	45282.34
1195.00	45377.53
1196.00	45349.44
1197.00	45486.75
1198.00	45553.85
1199.00	45705.98
1200.00	45629.52
1201.00	45724.71
1202.00	45868.26
1203.00	46092.95
1204.00	46220.90
1205.00	46280.97
1206.00	46160.83
1207.00	46084.37
1208.00	45890.88
1209.00	45889.32
1210.00	45891.66
1211.00	45954.86
1212.00	45996.21
1213.00	45937.69
1214.00	45776.98
1215.00	45779.32
1216.00	45622.50
1217.00	45774.64
1218.00	45369.72
1219.00	45315.11
1220.00	45077.94
1221.00	44836.08
1222.00	44613.73
1223.00	44319.60
1224.00	44052.78
1225.00	43697.02
1226.00	43501.98
1227.00	43543.33
1228.00	43650.21
1229.00	43706.38
1230.00	43704.82
1231.00	43817.95
1232.00	44034.06
1233.00	44293.08
1234.00	44324.29
1235.00	44071.51
1236.00	44033.28
1237.00	43929.51
1238.00	43847.60
1239.00	43523.82
1240.00	43267.14
1241.00	42888.76
1242.00	42211.56
1243.00	41254.28
1244.00	40087.14
1245.00	39012.05
1246.00	38030.58
1247.00	37504.74
1248.00	37294.10
1249.00	37337.79
1250.00	37601.49
1251.00	38345.00
1252.00	39219.58
1253.00	40192.46
1254.00	40784.62
1255.00	41203.57
1256.00	41600.68
1257.00	41947.86
1258.00	42080.49
1259.00	41759.06
1260.00	41541.39
1261.00	41542.17
1262.00	41667.78
1263.00	41467.27
1264.00	41252.72
1265.00	41067.82
1266.00	40992.14
1267.00	41176.26
1268.00	41293.29
1269.00	41471.95
1270.00	41318.26
1271.00	41277.69
1272.00	41417.34
1273.00	41596.78
1274.00	41737.99
1275.00	41458.69
1276.00	41319.04
1277.00	40914.90
1278.00	40790.08
1279.00	40445.24
1280.00	40334.45
1281.00	40040.32
1282.00	39768.82
1283.00	39599.52
1284.00	39654.14
1285.00	40035.64
1286.00	40304.81
1287.00	40519.35
1288.00	40553.68
1289.00	40595.03
1290.00	40709.72
1291.00	40740.92
1292.00	40972.64
1293.00	40894.62
1294.00	40891.50
1295.00	40694.11
1296.00	40708.16
1297.00	40690.21
1298.00	40604.39
1299.00	40431.97
1300.00	40276.72
1301.00	40226.79
1302.00	40206.50
1303.00	40001.32
1304.00	39963.87
1305.00	39886.63
1306.00	39932.66
1307.00	39837.48
1308.00	39918.62
1309.00	40064.51
1310.00	40157.35
1311.00	40048.13
1312.00	40120.68
1313.00	40058.27
1314.00	40147.99
1315.00	39935.78
1316.00	39921.74
1317.00	39806.27
1318.00	39668.18
1319.00	39414.62
1320.00	39293.69
1321.00	39182.91
1322.00	39320.22
1323.00	39170.43
1324.00	39257.81
1325.00	39249.22
1326.00	39147.02
1327.00	39037.01
1328.00	38649.27
1329.00	38698.42
1330.00	38454.22
1331.00	38729.62
1332.00	38827.15
1333.00	39063.54
1334.00	39135.32
1335.00	39196.95
1336.00	39384.97
1337.00	39612.79
1338.00	39832.02
1339.00	39928.76
1340.00	39650.24
1341.00	39592.50
1342.00	39273.41
1343.00	39317.88
1344.00	39086.17
1345.00	39241.42
1346.00	39076.80
1347.00	39211.78
1348.00	38995.67
1349.00	39008.15
1350.00	38779.56
1351.00	38779.56
1352.00	38639.90
1353.00	38563.45
1354.00	38591.53
1355.00	38514.30
1356.00	38486.21
1357.00	38323.15
1358.00	38238.89
1359.00	38199.88
1360.00	38279.46
1361.00	38536.92
1362.00	38582.17
1363.00	38495.57
1364.00	38244.35
1365.00	38048.53
1366.00	37990.02
1367.00	37886.25
1368.00	37817.60
1369.00	37736.46
1370.00	37646.74
1371.00	37523.47
1372.00	37413.46
1373.00	37290.98
1374.00	37175.51
1375.00	37036.64
1376.00	37092.03
1377.00	37059.26
1378.00	36901.67
1379.00	36760.45
1380.00	36673.85
1381.00	36641.87
1382.00	36584.91
1383.00	36504.56
1384.00	36363.34
1385.00	36365.68
1386.00	36480.37
1387.00	36722.23
1388.00	36685.56
1389.00	36649.67
1390.00	36537.32
1391.00	36401.57
1392.00	36391.43
1393.00	36169.86
1394.00	36084.04
1395.00	35865.59
1396.00	35885.87
1397.00	35921.76
1398.00	35889.77
1399.00	35933.46
1400.00	35775.09
1401.00	35544.94
1402.00	35203.22
1403.00	34895.83
1404.00	34748.37
1405.00	34524.46
1406.00	34564.25
1407.00	34648.51
1408.00	34909.09
1409.00	35097.11
1410.00	35270.31
1411.00	35174.35
1412.00	35205.56
1413.00	35026.90
1414.00	35184.49
1415.00	34902.07
1416.00	34790.50
1417.00	34332.54
1418.00	34049.33
1419.00	33462.64
1420.00	33170.85
1421.00	32984.39
1422.00	33164.61
1423.00	33232.49
1424.00	33330.79
1425.00	33368.24
1426.00	33523.49
1427.00	33803.58
1428.00	34074.30
1429.00	34137.49
1430.00	34142.17
1431.00	34151.54
1432.00	34324.74
1433.00	34406.66
1434.00	34476.87
1435.00	34420.70
1436.00	34283.39
1437.00	33995.50
1438.00	33812.94
1439.00	33589.81
1440.00	33588.25
1441.00	33582.01
1442.00	33818.40
1443.00	33855.85
1444.00	33875.35
1445.00	33749.74
1446.00	33919.82
1447.00	33968.19
1448.00	34033.73
1449.00	33915.92
1450.00	33947.13
1451.00	33789.53
1452.00	33624.14
1453.00	33400.22
1454.00	33254.33
1455.00	32908.71
1456.00	32658.27
1457.00	32493.66
1458.00	32721.47
1459.00	32910.27
1460.00	33059.29
1461.00	32749.56
1462.00	32469.47
1463.00	32161.30
1464.00	32052.86
1465.00	31907.74
1466.00	31824.26
1467.00	31761.07
1468.00	31683.05
1469.00	31643.26
1470.00	31505.95
1471.00	31445.88
1472.00	31346.01
1473.00	31415.45
1474.00	31304.67
1475.00	31232.89
1476.00	31137.71
1477.00	31107.28
1478.00	30894.29
1479.00	30624.35
1480.00	30309.94
1481.00	30214.76
1482.00	30279.51
1483.00	30446.47
1484.00	30522.93
1485.00	30600.16
1486.00	30576.76
1487.00	30555.69
1488.00	30716.41
1489.00	30828.76
1490.00	30878.69
1491.00	30615.77
1492.00	30426.18
1493.00	30082.13
1494.00	29587.49
1495.00	29067.89
1496.00	28536.59
1497.00	28052.88
1498.00	27894.50
1499.00	27955.36
1500.00	28290.84
1501.00	28605.25
1502.00	28925.12
1503.00	29038.25
1504.00	29023.42
1505.00	29067.89
1506.00	29017.96
1507.00	28838.52
1508.00	28594.32
1509.00	28442.19
1510.00	28249.49
1511.00	28098.91
1512.00	28038.06
1513.00	28157.42
1514.00	28261.97
1515.00	28353.25
1516.00	28361.05
1517.00	28501.48
1518.00	28638.01
1519.00	28646.60
1520.00	28489.78
1521.00	28137.92
1522.00	27962.38
1523.00	27762.65
1524.00	27834.43
1525.00	27986.57
1526.00	28151.96
1527.00	28248.71
1528.00	28461.69
1529.00	28617.73
1530.00	28800.29
1531.00	28651.28
1532.00	28560.78
1533.00	28489.00
1534.00	28274.45
1535.00	28219.06
1536.00	28119.20
1537.00	28165.23
1538.00	27971.74
1539.00	27949.90
1540.00	27984.23
1541.00	28187.07
1542.00	28132.46
1543.00	28096.57
1544.00	28080.19
1545.00	28312.68
1546.00	28383.68
1547.00	28407.08
1548.00	28269.77
1549.00	28188.63
1550.00	27931.95
1551.00	27827.41
1552.00	27634.71
1553.00	27704.14
1554.00	27594.92
1555.00	27731.45
1556.00	27882.80
1557.00	28059.90
1558.00	28122.32
1559.00	28069.26
1560.00	27960.04
1561.00	28007.63
1562.00	27943.66
1563.00	28050.54
1564.00	27965.50
1565.00	28044.30
1566.00	27842.23
1567.00	27880.46
1568.00	27734.57
1569.00	27907.77
1570.00	27798.54
1571.00	27814.15
1572.00	27538.74
1573.00	27481.01
1574.00	27390.51
1575.00	27430.30
1576.00	27071.42
1577.00	26838.92
1578.00	26770.27
1579.00	26865.45
1580.00	26880.27
1581.00	26729.70
1582.00	26711.75
1583.00	26611.11
1584.00	26491.74
1585.00	26364.57
1586.00	26348.19
1587.00	26332.59
1588.00	26423.87
1589.00	26367.70
1590.00	26373.94
1591.00	26295.92
1592.00	26267.05
1593.00	26247.55
1594.00	26180.45
1595.00	26201.52
1596.00	26177.33
1597.00	26043.92
1598.00	26046.26
1599.00	26079.81
1600.00	26244.43
1601.00	26045.48
1602.00	25933.14
1603.00	25718.59
1604.00	25751.35
1605.00	25715.47
1606.00	25866.04
1607.00	25845.76
1608.00	25858.24
1609.00	25816.11
1610.00	25784.90
1611.00	25756.82
1612.00	25646.03
1613.00	25614.04
1614.00	25468.15
1615.00	25533.68
1616.00	25401.05
1617.00	25370.63
1618.00	25097.56
1619.00	24886.14
1620.00	24748.82
1621.00	24620.88
1622.00	24816.70
1623.00	24716.06
1624.00	24800.32
1625.00	24684.07
1626.00	24651.30
1627.00	24489.81
1628.00	24375.90
1629.00	24265.89
1630.00	24237.81
1631.00	24070.07
1632.00	24042.76
1633.00	23838.36
1634.00	23830.55
1635.00	23806.37
1636.00	24031.84
1637.00	24091.91
1638.00	24059.93
1639.00	23875.80
1640.00	23734.59
1641.00	23477.13
1642.00	23101.87
1643.00	22875.62
1644.00	22807.74
1645.00	22994.20
1646.00	23252.44
1647.00	23578.56
1648.00	23922.62
1649.00	24164.47
1650.00	24258.09
1651.00	24237.03
1652.00	24229.23
1653.00	24276.82
1654.00	24215.96
1655.00	23942.90
1656.00	23607.42
1657.00	23399.12
1658.00	23225.92
1659.00	23248.54
1660.00	23344.50
1661.00	23476.35
1662.00	23545.79
1663.00	23524.72
1664.00	23520.04
1665.00	23507.56
1666.00	23523.94
1667.00	23576.22
1668.00	23519.26
1669.00	23561.39
1670.00	23602.74
1671.00	23612.10
1672.00	23523.16
1673.00	23422.52
1674.00	23446.71
1675.00	23347.62
1676.00	23235.28
1677.00	23007.47
1678.00	22828.02
1679.00	22711.78
1680.00	22528.44
1681.00	22352.90
1682.00	22151.61
1683.00	21946.42
1684.00	21685.84
1685.00	21293.41
1686.00	20637.28
1687.00	19862.57
1688.00	18896.71
1689.00	18209.37
1690.00	17887.93
1691.00	18056.45
1692.00	18465.27
1693.00	19111.25
1694.00	19732.28
1695.00	20351.74
1696.00	20708.28
1697.00	21143.62
1698.00	21476.76
1699.00	21752.16
1700.00	21854.36
1701.00	22035.36
1702.00	22093.88
1703.00	22105.58
1704.00	22054.87
1705.00	22145.37
1706.00	22203.88
1707.00	22096.22
1708.00	22017.42
1709.00	21880.11
1710.00	21942.52
1711.00	21918.34
1712.00	22010.40
1713.00	22037.70
1714.00	22119.62
1715.00	22151.61
1716.00	22182.04
1717.00	22141.47
1718.00	22046.29
1719.00	21958.91
1720.00	21926.92
1721.00	21850.46
1722.00	21806.77
1723.00	21724.85
1724.00	21688.96
1725.00	21686.62
1726.00	21639.03
1727.00	21706.13
1728.00	21617.97
1729.00	21606.27
1730.00	21587.54
1731.00	21732.65
1732.00	21667.12
1733.00	21512.64
1734.00	21365.19
1735.00	21372.21
1736.00	21362.07
1737.00	21165.46
1738.00	20997.73
1739.00	20956.38
1740.00	20933.75
1741.00	20936.09
1742.00	20912.69
1743.00	20844.03
1744.00	20781.62
1745.00	20708.28
1746.00	20746.51
1747.00	20731.69
1748.00	20724.66
1749.00	20819.07
1750.00	20755.09
1751.00	20780.84
1752.00	20688.78
1753.00	20767.57
1754.00	20712.18
1755.00	20635.72
1756.00	20634.94
1757.00	20440.68
1758.00	20414.15
1759.00	20169.96
1760.00	20194.14
1761.00	20005.34
1762.00	20018.60
1763.00	19934.34
1764.00	20093.50
1765.00	20197.26
1766.00	20223.79
1767.00	19997.54
1768.00	19737.74
1769.00	19565.32
1770.00	19622.27
1771.00	19725.25
1772.00	19733.84
1773.00	19751.78
1774.00	19723.69
1775.00	19686.25
1776.00	19653.48
1777.00	19616.81
1778.00	19662.06
1779.00	19584.82
1780.00	19520.85
1781.00	19431.13
1782.00	19353.89
1783.00	19268.07
1784.00	19185.37
1785.00	19137.00
1786.00	18998.13
1787.00	18940.40
1788.00	18865.50
1789.00	18878.76
1790.00	18816.35
1791.00	18691.52
1792.00	18567.47
1793.00	18531.58
1794.00	18526.12
1795.00	18508.96
1796.00	18367.74
1797.00	18306.89
1798.00	18197.67
1799.00	18173.48
1800.00	18050.21
1801.00	18143.83
1802.00	18099.36
1803.00	18122.77
1804.00	18015.10
1805.00	18051.77
1806.00	18063.47
1807.00	18024.47
1808.00	17989.36
1809.00	17946.45
1810.00	17986.24
1811.00	17993.26
1812.00	17867.65
1813.00	17692.89
1814.00	17510.33
1815.00	17476.78
1816.00	17440.11
1817.00	17399.54
1818.00	17412.03
1819.00	17349.61
1820.00	17267.69
1821.00	17148.32
1822.00	17043.78
1823.00	17037.54
1824.00	17065.63
1825.00	17118.68
1826.00	17031.30
1827.00	17011.79
1828.00	17000.09
1829.00	17064.07
1830.00	16825.33
1831.00	16712.99
1832.00	16638.87
1833.00	16632.63
1834.00	16568.65
1835.00	16511.70
1836.00	16543.69
1837.00	16556.17
1838.00	16511.70
1839.00	16523.40
1840.00	16529.64
1841.00	16568.65
1842.00	16475.03
1843.00	16292.47
1844.00	16134.09
1845.00	16009.26
1846.00	15931.25
1847.00	15839.97
1848.00	15896.14
1849.00	15868.05
1850.00	15848.55
1851.00	15670.67
1852.00	15598.11
1853.00	15481.08
1854.00	15358.60
1855.00	15300.08
1856.00	15255.61
1857.00	15422.57
1858.00	15494.35
1859.00	15429.59
1860.00	15302.42
1861.00	15190.86
1862.00	15231.43
1863.00	15059.01
1864.00	14945.88
1865.00	14929.50
1866.00	14947.44
1867.00	14902.97
1868.00	14812.47
1869.00	14778.92
1870.00	14783.60
1871.00	14738.35
1872.00	14733.67
1873.00	14658.78
1874.00	14611.96
1875.00	14527.71
1876.00	14536.29
1877.00	14447.35
1878.00	14338.90
1879.00	14248.40
1880.00	14221.88
1881.00	14200.81
1882.00	14241.38
1883.00	14218.75
1884.00	14164.92
1885.00	13906.68
1886.00	13725.68
1887.00	13599.29
1888.00	13579.79
1889.00	13495.53
1890.00	13405.81
1891.00	13357.44
1892.00	13402.69
1893.00	13468.22
1894.00	13483.83
1895.00	13392.55
1896.00	13350.42
1897.00	13242.75
1898.00	13215.44
1899.00	13093.74
1900.00	13130.41
1901.00	13028.20
1902.00	12930.68
1903.00	12659.96
1904.00	12340.86
1905.00	11747.15
1906.00	10859.31
1907.00	9898.13
1908.00	9142.13
1909.00	8553.10
1910.00	8159.11
1911.00	7931.30
1912.00	7941.44
1913.00	8219.96
1914.00	8567.92
1915.00	8998.58
1916.00	9376.19
1917.00	9682.80
1918.00	9918.41
1919.00	9974.58
1920.00	10024.51
1921.00	9877.84
1922.00	9777.20
1923.00	9607.12
1924.00	9575.13
1925.00	9554.07
1926.00	9492.43
1927.00	9469.03
1928.00	9497.89
1929.00	9564.21
1930.00	9651.59
1931.00	9679.68
1932.00	9760.81
1933.00	9779.54
1934.00	9855.22
1935.00	9931.67
1936.00	10010.47
1937.00	9983.16
1938.00	10039.34
1939.00	10111.89
1940.00	10178.99
1941.00	10119.70
1942.00	10118.92
1943.00	10147.00
1944.00	10137.64
1945.00	10133.74
1946.00	10124.38
1947.00	10133.74
1948.00	10113.45
1949.00	10049.48
1950.00	10028.42
1951.00	10009.69
1952.00	10021.39
1953.00	9951.96
1954.00	9857.56
1955.00	9764.71
1956.00	9743.65
1957.00	9644.57
1958.00	9567.33
1959.00	9479.17
1960.00	9374.63
1961.00	9298.95
1962.00	9221.71
1963.00	9240.44
1964.00	9260.72
1965.00	9279.44
1966.00	9249.80
1967.00	9181.92
1968.00	9167.10
1969.00	9196.74
1970.00	9245.12
1971.00	9160.86
1972.00	9056.31
1973.00	9015.74
1974.00	8990.78
1975.00	8967.37
1976.00	8938.51
1977.00	9013.40
1978.00	9117.17
1979.00	9119.51
1980.00	9109.36
1981.00	9063.33
1982.00	9110.15
1983.00	9119.51
1984.00	9091.42
1985.00	8985.32
1986.00	8921.34
1987.00	8955.67
1988.00	8949.43
1989.00	8775.45
1990.00	8631.90
1991.00	8456.36
1992.00	8422.03
1993.00	8366.64
1994.00	8382.24
1995.00	8359.61
1996.00	8231.66
1997.00	8177.83
1998.00	8108.40
1999.00	8101.37
2000.00	7985.91
2001.00	7996.05
2002.00	8017.12
2003.00	8043.64
2004.00	7960.16
2005.00	7835.33
2006.00	7826.75
2007.00	7791.64
2008.00	7804.91
2009.00	7734.69
2010.00	7703.48
2011.00	7689.44
2012.00	7729.23
2013.00	7751.85
2014.00	7676.18
2015.00	7555.25
2016.00	7438.22
2017.00	7373.47
2018.00	7313.39
2019.00	7278.29
2020.00	7272.04
2021.00	7253.32
2022.00	7244.74
2023.00	7180.76
2024.00	7179.20
2025.00	7155.80
2026.00	7154.24
2027.00	7106.65
2028.00	7110.55
2029.00	7107.43
2030.00	7148.00
2031.00	7112.89
2032.00	7123.81
2033.00	7070.76
2034.00	7051.25
2035.00	6991.96
2036.00	6965.43
2037.00	6941.25
2038.00	6891.32
2039.00	6848.41
2040.00	6796.14
2041.00	6857.77
2042.00	6834.36
2043.00	6856.21
2044.00	6786.77
2045.00	6729.04
2046.00	6638.54
2047.00	6541.80
>>>>>End Processed Spectral Data<<<<<
