SpectraSuite Data File
++++++++++++++++++++++++++++++++++++
Date: Thu Nov 16 13:32:47 EST 2017
User: cheriyan
Dark Spectrum Present: No
Reference Spectrum Present: No
Number of Sampled Component Spectra: 1
Spectrometers: USB2+H05261
Integration Time (usec): 90000 (USB2+H05261)
Spectra Averaged: 1 (USB2+H05261)
Boxcar Smoothing: 1 (USB2+H05261)
Correct for Electrical Dark: No (USB2+H05261)
Strobe/Lamp Enabled: No (USB2+H05261)
Correct for Detector Non-linearity: No (USB2+H05261)
Correct for Stray Light: No (USB2+H05261)
Number of Pixels in Processed Spectrum: 2048
>>>>>Begin Processed Spectral Data<<<<<
0.00	355.76
1.00	355.76
2.00	317.53
3.00	305.05
4.00	287.11
5.00	295.69
6.00	276.18
7.00	265.26
8.00	265.26
9.00	273.84
10.00	271.50
11.00	252.78
12.00	238.73
13.00	220.01
14.00	227.81
15.00	235.61
16.00	245.76
17.00	255.90
18.00	248.88
19.00	265.26
20.00	294.13
21.00	309.73
22.00	342.50
23.00	791.88
24.00	2514.52
25.00	4322.97
26.00	5746.02
27.00	5873.18
28.00	5729.63
29.00	5472.95
30.00	5230.32
31.00	5149.96
32.00	5220.96
33.00	5311.46
34.00	5319.26
35.00	5170.24
36.00	4958.03
37.00	4787.18
38.00	4776.25
39.00	4887.04
40.00	5000.94
41.00	5002.50
42.00	4880.02
43.00	4899.52
44.00	4924.49
45.00	5222.52
46.00	5456.57
47.00	5742.89
48.00	5868.50
49.00	5951.98
50.00	5930.14
51.00	5866.94
52.00	5831.05
53.00	5943.40
54.00	6129.08
55.00	6318.67
56.00	6506.69
57.00	6763.37
58.00	7101.19
59.00	7401.55
60.00	7531.06
61.00	7491.27
62.00	7428.08
63.00	7275.17
64.00	7029.41
65.00	6724.36
66.00	6430.23
67.00	6191.50
68.00	6012.06
69.00	6064.33
70.00	6294.48
71.00	6553.50
72.00	6850.75
73.00	7038.77
74.00	7155.80
75.00	7054.37
76.00	6862.45
77.00	6625.28
78.00	6342.07
79.00	5999.57
80.00	5671.12
81.00	5391.03
82.00	5255.28
83.00	5080.52
84.00	4904.20
85.00	4746.61
86.00	4618.66
87.00	4570.29
88.00	4569.51
89.00	4653.77
90.00	4911.22
91.00	5263.08
92.00	5798.29
93.00	6206.32
94.00	6548.04
95.00	6756.35
96.00	6810.18
97.00	6672.09
98.00	6498.89
99.00	6370.16
100.00	6393.56
101.00	6418.53
102.00	6543.36
103.00	6727.48
104.00	6791.45
105.00	6779.75
106.00	6709.54
107.00	6743.08
108.00	6861.67
109.00	6880.39
110.00	6883.52
111.00	6813.30
112.00	6794.58
113.00	6803.16
114.00	6821.10
115.00	6929.55
116.00	7187.00
117.00	7606.74
118.00	7990.59
119.00	8317.48
120.00	8513.31
121.00	8656.86
122.00	8615.51
123.00	8675.59
124.00	8743.46
125.00	9018.86
126.00	9207.67
127.00	9526.76
128.00	9716.34
129.00	9746.77
130.00	9647.69
131.00	9317.67
132.00	8983.76
133.00	8545.30
134.00	7992.15
135.00	7284.53
136.00	6371.72
137.00	5579.84
138.00	4959.60
139.00	4716.18
140.00	4912.00
141.00	5485.44
142.00	6271.08
143.00	7127.71
144.00	7857.96
145.00	8527.35
146.00	9095.32
147.00	9622.72
148.00	10003.45
149.00	10277.29
150.00	10336.59
151.00	10164.17
152.00	9627.40
153.00	8900.28
154.00	7936.76
155.00	6976.36
156.00	6259.37
157.00	5991.77
158.00	6272.64
159.00	7001.32
160.00	8151.31
161.00	9346.54
162.00	10459.85
163.00	11282.16
164.00	11922.69
165.00	12412.64
166.00	12914.30
167.00	13284.88
168.00	13647.66
169.00	13880.16
170.00	14004.99
171.00	14037.75
172.00	14045.55
173.00	14235.92
174.00	14370.11
175.00	14473.87
176.00	14491.04
177.00	14626.79
178.00	14855.38
179.00	15210.36
180.00	15411.65
181.00	15535.70
182.00	15601.23
183.00	15730.74
184.00	15919.54
185.00	15928.13
186.00	15832.94
187.00	15726.06
188.00	15498.25
189.00	15208.80
190.00	15060.57
191.00	15257.17
192.00	15688.61
193.00	15998.34
194.00	16069.34
195.00	15856.35
196.00	15530.23
197.00	15474.84
198.00	15561.44
199.00	15739.32
200.00	15839.19
201.00	15885.22
202.00	15903.94
203.00	15786.91
204.00	15686.27
205.00	15500.59
206.00	15284.48
207.00	15340.65
208.00	15601.23
209.00	15841.53
210.00	15832.94
211.00	15726.84
212.00	15624.64
213.00	15848.55
214.00	15985.86
215.00	16347.08
216.00	16640.43
217.00	17119.46
218.00	17412.03
219.00	17669.48
220.00	17652.32
221.00	17648.42
222.00	17261.45
223.00	16781.64
224.00	16249.56
225.00	15756.49
226.00	15548.96
227.00	15565.34
228.00	16009.26
229.00	16523.40
230.00	17210.74
231.00	17871.55
232.00	18404.41
233.00	18738.33
234.00	18810.89
235.00	19002.03
236.00	19023.09
237.00	19104.23
238.00	18971.60
239.00	18838.97
240.00	18684.50
241.00	18546.40
242.00	18598.68
243.00	18662.65
244.00	19015.29
245.00	19141.68
246.00	19442.05
247.00	19404.60
248.00	19428.01
249.00	19300.06
250.00	19291.48
251.00	19419.42
252.00	19483.40
253.00	19462.33
254.00	19382.76
255.00	19681.56
256.00	20132.51
257.00	20739.49
258.00	21007.09
259.00	21090.57
260.00	21014.11
261.00	20671.61
262.00	20296.35
263.00	19886.75
264.00	19750.22
265.00	19790.01
266.00	19840.72
267.00	20042.79
268.00	20131.73
269.00	20248.75
270.00	20173.86
271.00	20337.70
272.00	20719.98
273.00	21010.21
274.00	20929.85
275.00	20600.62
276.00	20389.97
277.00	20166.06
278.00	20124.71
279.00	20271.38
280.00	20858.85
281.00	21408.88
282.00	21928.48
283.00	22139.91
284.00	22300.62
285.00	22095.44
286.00	22118.84
287.00	21891.81
288.00	21665.56
289.00	21078.86
290.00	20413.37
291.00	19877.39
292.00	19694.05
293.00	19988.18
294.00	20543.66
295.00	20922.05
296.00	21097.59
297.00	20950.92
298.00	21074.96
299.00	21195.89
300.00	21414.34
301.00	21231.78
302.00	21124.12
303.00	20982.90
304.00	20908.01
305.00	20756.65
306.00	20572.53
307.00	20539.76
308.00	20386.85
309.00	20404.79
310.00	20590.47
311.00	20977.44
312.00	21131.14
313.00	20923.61
314.00	20251.10
315.00	19579.36
316.00	19179.13
317.00	19139.34
318.00	19520.85
319.00	19776.75
320.00	20302.59
321.00	20361.88
322.00	20337.69
323.00	19988.18
324.00	19789.23
325.00	19618.37
326.00	19438.15
327.00	19242.32
328.00	18743.01
329.00	18080.64
330.00	17167.83
331.00	16331.48
332.00	15665.21
333.00	15178.37
334.00	15030.92
335.00	15115.18
336.00	15731.52
337.00	16847.96
338.00	18650.95
339.00	20531.96
340.00	22143.03
341.00	22757.81
342.00	22559.64
343.00	21893.37
344.00	21277.03
345.00	21303.56
346.00	21797.41
347.00	22607.23
348.00	23048.82
349.00	22891.22
350.00	22033.02
351.00	21049.22
352.00	20273.72
353.00	20296.35
354.00	20758.99
355.00	21472.85
356.00	22107.92
357.00	22434.82
358.00	22667.31
359.00	22878.74
360.00	23051.94
361.00	23563.73
362.00	23868.00
363.00	24516.33
364.00	24634.14
365.00	24721.52
366.00	24545.20
367.00	24438.31
368.00	24272.92
369.00	23822.75
370.00	23591.04
371.00	23323.44
372.00	23172.86
373.00	22770.29
374.00	22220.27
375.00	21774.78
376.00	21475.98
377.00	21539.17
378.00	21952.66
379.00	22519.07
380.00	23186.91
381.00	23863.32
382.00	24434.41
383.00	24775.35
384.00	24719.18
385.00	24411.01
386.00	24208.16
387.00	24287.74
388.00	24687.97
389.00	25427.58
390.00	26022.08
391.00	26517.49
392.00	26754.66
393.00	27113.55
394.00	27412.35
395.00	27652.65
396.00	27903.09
397.00	28292.40
398.00	28440.63
399.00	28602.13
400.00	28352.47
401.00	28308.00
402.00	28142.60
403.00	28370.41
404.00	28578.72
405.00	28773.77
406.00	28956.33
407.00	28833.84
408.00	28529.57
409.00	28351.69
410.00	28524.11
411.00	28757.38
412.00	28311.90
413.00	27627.68
414.00	26852.19
415.00	26469.90
416.00	26362.23
417.00	26703.95
418.00	27057.37
419.00	27598.04
420.00	27851.59
421.00	28325.94
422.00	28570.92
423.00	28980.51
424.00	29285.56
425.00	29575.01
426.00	29595.29
427.00	29355.00
428.00	29021.08
429.00	28999.24
430.00	29077.26
431.00	29168.54
432.00	29041.37
433.00	29162.29
434.00	29249.67
435.00	29407.27
436.00	29643.66
437.00	29905.81
438.00	30327.88
439.00	30525.27
440.00	31156.43
441.00	31506.73
442.00	31798.52
443.00	31641.70
444.00	31429.49
445.00	31150.97
446.00	30822.51
447.00	30793.65
448.00	30756.98
449.00	30579.88
450.00	30134.40
451.00	29697.50
452.00	29173.22
453.00	28600.57
454.00	28102.03
455.00	28006.85
456.00	28424.25
457.00	28967.25
458.00	29575.01
459.00	29908.15
460.00	30270.93
461.00	30314.62
462.00	30373.91
463.00	30146.10
464.00	30044.68
465.00	29881.62
466.00	29763.03
467.00	30068.86
468.00	30261.57
469.00	30994.93
470.00	31332.75
471.00	31757.95
472.00	31647.16
473.00	31669.01
474.00	31870.29
475.00	32100.45
476.00	32268.97
477.00	32431.24
478.00	32698.06
479.00	32868.92
480.00	32424.22
481.00	31853.91
482.00	31254.73
483.00	30771.02
484.00	30979.33
485.00	31268.00
486.00	31712.70
487.00	31592.55
488.00	31583.97
489.00	31531.70
490.00	31495.03
491.00	31259.41
492.00	31437.30
493.00	31466.16
494.00	31664.33
495.00	31814.12
496.00	32338.40
497.00	32775.30
498.00	33028.08
499.00	33095.96
500.00	33074.11
501.00	33063.97
502.00	33024.96
503.00	33048.36
504.00	33305.82
505.00	33429.87
506.00	33563.28
507.00	33641.30
508.00	33628.82
509.00	33653.00
510.00	33530.51
511.00	33426.75
512.00	33440.79
513.00	33252.77
514.00	33181.77
515.00	32967.23
516.00	32872.82
517.00	32694.94
518.00	32358.69
519.00	31999.02
520.00	32094.21
521.00	32197.97
522.00	32431.24
523.00	32719.13
524.00	33107.66
525.00	33395.54
526.00	33005.45
527.00	32486.64
528.00	31797.74
529.00	31422.47
530.00	31312.47
531.00	31452.12
532.00	31745.47
533.00	32164.42
534.00	32475.71
535.00	32673.10
536.00	32361.03
537.00	32154.28
538.00	32040.37
539.00	32297.83
540.00	32535.79
541.00	32710.55
542.00	32655.15
543.00	32746.44
544.00	32677.00
545.00	32822.11
546.00	32435.92
547.00	32121.51
548.00	31654.97
549.00	31737.66
550.00	31909.30
551.00	32106.69
552.00	32112.93
553.00	32244.00
554.00	32499.12
555.00	33085.03
556.00	33538.32
557.00	34054.79
558.00	34541.63
559.00	34934.06
560.00	35204.78
561.00	34991.01
562.00	34560.35
563.00	34155.44
564.00	33873.79
565.00	34011.88
566.00	34185.86
567.00	34272.46
568.00	34368.43
569.00	34307.57
570.00	34673.48
571.00	35012.85
572.00	35596.43
573.00	35752.46
574.00	35790.69
575.00	35724.38
576.00	35950.63
577.00	35860.91
578.00	35862.47
579.00	35565.22
580.00	35465.36
581.00	35248.47
582.00	35240.67
583.00	35229.74
584.00	35578.48
585.00	36006.80
586.00	36713.64
587.00	36980.46
588.00	37254.31
589.00	37667.02
590.00	38103.92
591.00	38646.93
592.00	38845.09
593.00	38999.57
594.00	38787.36
595.00	38624.30
596.00	38644.59
597.00	38936.37
598.00	39633.85
599.00	40354.74
600.00	40868.09
601.00	40770.57
602.00	40605.95
603.00	40610.64
604.00	40832.21
605.00	41234.78
606.00	41410.32
607.00	41511.74
608.00	41649.83
609.00	41898.71
610.00	42459.66
611.00	42642.22
612.00	43072.88
613.00	43398.21
614.00	43629.15
615.00	43536.30
616.00	43355.30
617.00	43462.19
618.00	43722.77
619.00	43816.39
620.00	43967.74
621.00	44020.02
622.00	44395.28
623.00	44736.22
624.00	44708.91
625.00	44379.68
626.00	44134.70
627.00	44286.06
628.00	44584.08
629.00	44940.63
630.00	45356.46
631.00	45323.69
632.00	44577.84
633.00	43472.33
634.00	42178.79
635.00	40324.31
636.00	38459.68
637.00	37682.62
638.00	38358.26
639.00	39640.09
640.00	40837.67
641.00	41875.30
642.00	42788.89
643.00	43589.36
644.00	44385.92
645.00	45379.87
646.00	46219.34
647.00	46890.29
648.00	47371.66
649.00	47736.79
650.00	47704.02
651.00	47454.36
652.00	46893.41
653.00	47018.24
654.00	47336.55
655.00	48448.31
656.00	49517.93
657.00	50440.89
658.00	50959.70
659.00	51192.98
660.00	51300.64
661.00	51126.66
662.00	50986.23
663.00	50925.38
664.00	51020.56
665.00	50817.71
666.00	50884.81
667.00	50635.15
668.00	50252.86
669.00	49455.52
670.00	48999.12
671.00	49048.27
672.00	49692.69
673.00	50606.28
674.00	51583.85
675.00	52228.27
676.00	52415.52
677.00	52335.16
678.00	52087.84
679.00	52002.02
680.00	52001.24
681.00	52362.47
682.00	52770.50
683.00	53309.60
684.00	53795.65
685.00	54177.16
686.00	54375.33
687.00	54369.86
688.00	54267.66
689.00	53925.16
690.00	53549.90
691.00	53322.86
692.00	53361.09
693.00	53727.78
694.00	54188.86
695.00	54628.10
696.00	54749.03
697.00	54770.88
698.00	54879.32
699.00	54953.44
700.00	55136.78
701.00	55261.61
702.00	55121.18
703.00	54647.61
704.00	53994.60
705.00	53648.20
706.00	53479.68
707.00	53719.98
708.00	54176.38
709.00	54681.94
710.00	55104.01
711.00	55315.44
712.00	55528.43
713.00	55533.89
714.00	55449.63
715.00	55132.88
716.00	54715.48
717.00	54383.91
718.00	54118.65
719.00	54002.40
720.00	53842.46
721.00	53819.84
722.00	53783.95
723.00	53825.30
724.00	53723.88
725.00	53517.13
726.00	53474.22
727.00	53769.13
728.00	54159.22
729.00	54474.41
730.00	54672.57
731.00	54969.82
732.00	55235.08
733.00	55332.60
734.00	55247.57
735.00	54976.84
736.00	54540.72
737.00	54096.02
738.00	53799.55
739.00	54012.54
740.00	54337.10
741.00	54859.04
742.00	55092.31
743.00	55286.57
744.00	55361.47
745.00	55623.61
746.00	55881.07
747.00	56260.24
748.00	56519.26
749.00	56740.05
750.00	56722.88
751.00	56452.94
752.00	56299.25
753.00	56002.00
754.00	56004.34
755.00	55842.84
756.00	55898.23
757.00	55723.47
758.00	55589.28
759.00	55283.45
760.00	54923.01
761.00	54859.82
762.00	54942.52
763.00	55387.22
764.00	55667.30
765.00	56098.74
766.00	56402.23
767.00	56690.12
768.00	56767.35
769.00	56755.65
770.00	56658.91
771.00	56395.21
772.00	56308.61
773.00	56270.38
774.00	56339.82
775.00	56270.38
776.00	56191.58
777.00	56239.17
778.00	56427.98
779.00	56726.78
780.00	56956.16
781.00	57221.42
782.00	57362.63
783.00	57334.54
784.00	57045.10
785.00	56619.90
786.00	56317.19
787.00	56094.06
788.00	55983.27
789.00	56080.80
790.00	56139.31
791.00	56272.72
792.00	56227.47
793.00	56086.26
794.00	55924.76
795.00	55661.06
796.00	55735.18
797.00	55633.75
798.00	55760.14
799.00	55818.66
800.00	56030.86
801.00	56218.11
802.00	56248.53
803.00	56247.75
804.00	56359.32
805.00	56648.77
806.00	56786.08
807.00	56488.83
808.00	55813.19
809.00	54741.23
810.00	53528.05
811.00	52140.89
812.00	51118.08
813.00	50575.86
814.00	51064.25
815.00	52187.70
816.00	53553.02
817.00	54362.06
818.00	54507.18
819.00	53866.65
820.00	53116.90
821.00	52818.87
822.00	53134.06
823.00	53758.20
824.00	54358.94
825.00	54897.27
826.00	55256.15
827.00	55571.34
828.00	55845.96
829.00	56207.97
830.00	56442.80
831.00	56480.25
832.00	56355.42
833.00	56076.90
834.00	56028.52
835.00	56089.38
836.00	56376.48
837.00	56664.37
838.00	56833.67
839.00	56988.14
840.00	57061.48
841.00	57176.95
842.00	57144.18
843.00	56977.22
844.00	56560.61
845.00	56151.79
846.00	55859.23
847.00	55847.52
848.00	55923.98
849.00	56113.56
850.00	56404.57
851.00	56809.48
852.00	57178.51
853.00	57437.53
854.00	57650.52
855.00	57788.61
856.00	57858.82
857.00	57691.86
858.00	57520.23
859.00	57304.12
860.00	57205.03
861.00	57142.62
862.00	57272.13
863.00	57329.86
864.00	57158.22
865.00	56629.26
866.00	55872.49
867.00	54969.04
868.00	54062.47
869.00	53475.78
870.00	53198.04
871.00	53463.30
872.00	53897.08
873.00	54556.33
874.00	55220.26
875.00	55825.68
876.00	56292.22
877.00	56401.45
878.00	56420.17
879.00	56614.44
880.00	56894.52
881.00	57254.18
882.00	57522.57
883.00	57723.07
884.00	57620.87
885.00	57312.70
886.00	56935.87
887.00	56764.23
888.00	56590.25
889.00	56669.05
890.00	56864.88
891.00	57117.65
892.00	57407.10
893.00	57486.68
894.00	57666.12
895.00	57592.78
896.00	57599.80
897.00	57504.62
898.00	57353.27
899.00	57107.51
900.00	56835.23
901.00	56417.05
902.00	55916.18
903.00	55377.86
904.00	55038.48
905.00	55008.05
906.00	55088.41
907.00	55457.43
908.00	55778.87
909.00	56313.29
910.00	56410.03
911.00	56388.19
912.00	56026.96
913.00	55986.39
914.00	55952.07
915.00	56209.53
916.00	56232.93
917.00	56475.57
918.00	56587.13
919.00	56821.19
920.00	56953.04
921.00	57209.71
922.00	57356.39
923.00	57241.70
924.00	56868.00
925.00	56420.95
926.00	56115.90
927.00	55728.16
928.00	55295.94
929.00	55140.68
930.00	55119.62
931.00	55441.83
932.00	55767.94
933.00	56087.04
934.00	56248.53
935.00	56130.73
936.00	56158.03
937.00	56191.58
938.00	56085.48
939.00	55980.15
940.00	55811.63
941.00	55712.55
942.00	55556.52
943.00	55348.99
944.00	55162.53
945.00	54959.68
946.00	54918.33
947.00	54731.09
948.00	54604.70
949.00	54190.42
950.00	54111.63
951.00	53968.07
952.00	53958.71
953.00	54014.10
954.00	54126.45
955.00	54480.65
956.00	54781.80
957.00	55060.32
958.00	55230.40
959.00	55295.94
960.00	55214.02
961.00	55045.50
962.00	54924.57
963.00	54918.33
964.00	54962.02
965.00	54862.94
966.00	54795.84
967.00	54795.84
968.00	54943.30
969.00	55166.43
970.00	55538.57
971.00	55863.91
972.00	56010.58
973.00	55692.27
974.00	55377.86
975.00	55199.97
976.00	55277.21
977.00	55271.75
978.00	55203.88
979.00	55023.65
980.00	54923.01
981.00	55029.90
982.00	55147.70
983.00	55220.26
984.00	55042.38
985.00	54951.88
986.00	54923.79
987.00	54925.35
988.00	55017.41
989.00	54897.27
990.00	54819.25
991.00	54402.63
992.00	54212.27
993.00	53914.24
994.00	54006.30
995.00	54146.73
996.00	54394.05
997.00	54720.94
998.00	54928.47
999.00	55090.75
1000.00	55104.01
1001.00	55008.83
1002.00	54867.62
1003.00	54670.23
1004.00	54670.23
1005.00	54691.30
1006.00	54805.98
1007.00	54709.24
1008.00	54646.05
1009.00	54389.37
1010.00	54356.60
1011.00	54239.57
1012.00	54205.25
1013.00	54059.35
1014.00	53992.26
1015.00	54096.02
1016.00	54336.32
1017.00	54616.40
1018.00	54756.83
1019.00	54745.13
1020.00	54612.50
1021.00	54415.11
1022.00	54069.50
1023.00	53683.31
1024.00	53450.03
1025.00	53585.78
1026.00	53907.22
1027.00	54121.77
1028.00	54238.01
1029.00	54268.44
1030.00	54276.24
1031.00	54486.11
1032.00	54547.75
1033.00	54707.68
1034.00	54579.73
1035.00	54632.78
1036.00	54611.72
1037.00	54530.58
1038.00	54463.49
1039.00	54294.19
1040.00	54230.21
1041.00	54028.93
1042.00	53963.39
1043.00	53767.57
1044.00	53763.67
1045.00	53687.99
1046.00	53595.15
1047.00	53389.18
1048.00	53134.84
1049.00	53024.06
1050.00	53041.22
1051.00	53090.37
1052.00	53234.70
1053.00	53356.41
1054.00	53411.81
1055.00	53279.17
1056.00	52983.49
1057.00	52774.40
1058.00	52413.96
1059.00	51979.40
1060.00	51711.80
1061.00	51583.07
1062.00	51700.09
1063.00	51745.34
1064.00	51869.39
1065.00	51831.94
1066.00	51790.59
1067.00	51850.67
1068.00	51961.45
1069.00	52247.00
1070.00	52566.87
1071.00	53004.55
1072.00	53221.44
1073.00	53137.96
1074.00	52947.60
1075.00	52558.29
1076.00	52279.77
1077.00	51984.08
1078.00	51978.62
1079.00	51895.14
1080.00	51938.83
1081.00	51913.08
1082.00	52082.38
1083.00	52202.53
1084.00	52300.05
1085.00	52397.57
1086.00	52484.95
1087.00	52581.70
1088.00	52372.61
1089.00	52079.26
1090.00	51708.68
1091.00	51528.45
1092.00	51522.99
1093.00	51578.39
1094.00	51813.22
1095.00	51795.28
1096.00	51725.84
1097.00	51598.67
1098.00	51419.23
1099.00	51288.94
1100.00	50926.16
1101.00	50624.23
1102.00	50294.99
1103.00	50165.48
1104.00	50231.02
1105.00	50362.09
1106.00	50547.77
1107.00	50629.69
1108.00	50795.09
1109.00	50866.86
1110.00	51155.53
1111.00	51231.99
1112.00	51444.19
1113.00	51356.81
1114.00	51160.21
1115.00	50770.12
1116.00	50328.54
1117.00	50036.75
1118.00	49579.57
1119.00	49401.69
1120.00	49278.42
1121.00	49393.89
1122.00	49506.23
1123.00	49480.49
1124.00	49558.50
1125.00	49477.36
1126.00	49575.67
1127.00	49557.72
1128.00	49503.11
1129.00	49185.58
1130.00	48935.92
1131.00	48392.92
1132.00	48113.61
1133.00	47570.61
1134.00	47425.49
1135.00	47246.05
1136.00	47394.29
1137.00	47667.35
1138.00	48077.72
1139.00	48534.91
1140.00	48916.42
1141.00	49112.24
1142.00	49197.28
1143.00	49086.50
1144.00	48981.95
1145.00	49001.46
1146.00	49145.01
1147.00	49180.12
1148.00	49077.91
1149.00	48850.10
1150.00	48783.01
1151.00	48626.19
1152.00	48800.95
1153.00	48732.29
1154.00	48655.06
1155.00	48211.13
1156.00	48003.61
1157.00	47800.76
1158.00	47587.77
1159.00	47437.98
1160.00	47197.68
1161.00	47084.56
1162.00	46911.36
1163.00	46751.42
1164.00	46558.72
1165.00	46558.72
1166.00	46620.35
1167.00	47012.78
1168.00	47104.84
1169.00	47229.67
1170.00	47099.38
1171.00	47058.03
1172.00	46974.55
1173.00	46834.12
1174.00	46652.34
1175.00	46634.39
1176.00	46426.09
1177.00	46212.32
1178.00	45796.48
1179.00	45695.84
1180.00	45644.35
1181.00	45646.69
1182.00	45518.74
1183.00	45578.03
1184.00	45600.66
1185.00	45866.70
1186.00	46037.56
1187.00	46393.32
1188.00	46479.14
1189.00	46487.72
1190.00	46401.90
1191.00	46400.34
1192.00	46287.99
1193.00	46203.74
1194.00	46252.89
1195.00	46376.15
1196.00	46422.19
1197.00	46423.75
1198.00	46337.93
1199.00	46369.91
1200.00	46358.99
1201.00	46541.55
1202.00	46564.96
1203.00	46626.59
1204.00	46703.05
1205.00	46893.41
1206.00	47029.94
1207.00	47139.95
1208.00	47048.67
1209.00	46988.60
1210.00	46747.52
1211.00	46724.89
1212.00	46666.38
1213.00	46695.25
1214.00	46472.90
1215.00	46488.50
1216.00	46483.82
1217.00	46607.09
1218.00	46279.41
1219.00	46232.60
1220.00	46114.80
1221.00	45848.75
1222.00	45407.17
1223.00	45109.92
1224.00	44880.55
1225.00	44691.75
1226.00	44505.29
1227.00	44392.94
1228.00	44410.10
1229.00	44441.31
1230.00	44737.00
1231.00	44966.37
1232.00	45007.72
1233.00	45076.38
1234.00	44931.26
1235.00	44925.80
1236.00	44946.87
1237.00	44777.57
1238.00	44670.68
1239.00	44385.14
1240.00	44294.64
1241.00	43797.66
1242.00	43058.84
1243.00	41855.80
1244.00	40709.72
1245.00	39596.40
1246.00	38692.18
1247.00	38073.49
1248.00	37716.95
1249.00	37842.56
1250.00	38262.30
1251.00	38947.29
1252.00	39837.48
1253.00	40822.84
1254.00	41560.89
1255.00	42044.60
1256.00	42406.61
1257.00	42787.33
1258.00	42919.18
1259.00	42564.20
1260.00	42199.08
1261.00	41991.55
1262.00	41946.30
1263.00	42083.61
1264.00	42142.91
1265.00	42195.18
1266.00	41991.55
1267.00	41963.46
1268.00	42071.13
1269.00	42137.44
1270.00	42136.66
1271.00	42046.16
1272.00	42033.68
1273.00	41895.59
1274.00	42192.06
1275.00	42324.69
1276.00	42347.31
1277.00	41881.55
1278.00	41461.81
1279.00	41237.90
1280.00	40909.44
1281.00	40760.43
1282.00	40605.17
1283.00	40565.38
1284.00	40577.87
1285.00	40787.74
1286.00	41052.22
1287.00	41258.18
1288.00	41312.80
1289.00	41428.26
1290.00	41573.38
1291.00	41651.39
1292.00	41754.38
1293.00	41645.15
1294.00	41538.27
1295.00	41525.78
1296.00	41677.92
1297.00	41678.70
1298.00	41584.30
1299.00	41399.40
1300.00	41216.83
1301.00	41163.00
1302.00	40925.05
1303.00	40959.38
1304.00	40762.77
1305.00	40850.93
1306.00	40737.80
1307.00	40625.46
1308.00	40528.72
1309.00	40534.96
1310.00	40673.83
1311.00	40702.70
1312.00	40992.14
1313.00	40960.94
1314.00	40953.13
1315.00	40704.26
1316.00	40687.87
1317.00	40769.79
1318.00	40538.86
1319.00	40259.55
1320.00	40152.67
1321.00	40073.09
1322.00	40278.28
1323.00	40077.77
1324.00	40101.96
1325.00	39924.86
1326.00	39732.93
1327.00	39597.96
1328.00	39274.97
1329.00	39228.16
1330.00	39111.91
1331.00	39328.80
1332.00	39459.09
1333.00	39811.73
1334.00	40124.58
1335.00	40177.64
1336.00	40130.05
1337.00	39966.21
1338.00	40197.92
1339.00	40413.25
1340.00	40446.80
1341.00	40379.70
1342.00	40145.65
1343.00	40230.69
1344.00	40184.66
1345.00	40243.95
1346.00	40222.89
1347.00	40226.79
1348.00	40036.42
1349.00	39883.51
1350.00	39585.48
1351.00	39507.46
1352.00	39252.34
1353.00	39392.00
1354.00	39322.56
1355.00	39466.89
1356.00	39347.53
1357.00	39354.55
1358.00	39108.01
1359.00	39097.09
1360.00	39021.41
1361.00	39168.87
1362.00	39058.86
1363.00	39142.34
1364.00	39043.26
1365.00	38903.60
1366.00	38625.08
1367.00	38239.67
1368.00	38221.73
1369.00	38173.36
1370.00	38298.97
1371.00	38211.59
1372.00	38149.17
1373.00	38107.82
1374.00	37992.36
1375.00	38001.72
1376.00	37997.04
1377.00	37848.80
1378.00	37723.97
1379.00	37535.17
1380.00	37474.32
1381.00	37378.36
1382.00	37168.49
1383.00	37170.05
1384.00	37075.65
1385.00	37347.15
1386.00	37440.77
1387.00	37519.57
1388.00	37540.63
1389.00	37482.90
1390.00	37514.89
1391.00	37313.60
1392.00	37211.40
1393.00	36874.36
1394.00	36652.79
1395.00	36466.33
1396.00	36449.16
1397.00	36462.43
1398.00	36478.03
1399.00	36568.53
1400.00	36630.94
1401.00	36452.28
1402.00	36212.77
1403.00	35701.75
1404.00	35312.44
1405.00	35071.37
1406.00	35235.98
1407.00	35636.22
1408.00	35938.93
1409.00	35942.83
1410.00	35999.78
1411.00	35991.98
1412.00	36158.94
1413.00	36000.56
1414.00	35869.49
1415.00	35672.10
1416.00	35544.16
1417.00	35194.64
1418.00	34742.13
1419.00	34318.49
1420.00	34091.46
1421.00	33971.32
1422.00	33954.93
1423.00	33881.60
1424.00	33929.19
1425.00	34096.14
1426.00	34332.54
1427.00	34564.25
1428.00	34652.41
1429.00	34664.11
1430.00	34980.87
1431.00	35110.38
1432.00	35324.15
1433.00	35136.12
1434.00	35060.44
1435.00	35101.79
1436.00	35009.73
1437.00	34832.63
1438.00	34530.70
1439.00	34301.33
1440.00	34263.88
1441.00	34356.72
1442.00	34478.43
1443.00	34451.91
1444.00	34441.76
1445.00	34483.11
1446.00	34542.41
1447.00	34540.07
1448.00	34565.03
1449.00	34610.28
1450.00	34648.51
1451.00	34581.42
1452.00	34374.67
1453.00	34102.39
1454.00	33850.39
1455.00	33706.84
1456.00	33537.54
1457.00	33447.04
1458.00	33539.10
1459.00	33577.33
1460.00	33523.49
1461.00	33335.47
1462.00	33141.21
1463.00	32893.11
1464.00	32748.00
1465.00	32565.43
1466.00	32510.82
1467.00	32348.54
1468.00	32361.03
1469.00	32393.01
1470.00	32401.60
1471.00	32212.01
1472.00	32078.60
1473.00	31864.83
1474.00	31819.58
1475.00	31679.93
1476.00	31603.47
1477.00	31679.93
1478.00	31601.91
1479.00	31639.36
1480.00	31300.76
1481.00	31178.28
1482.00	30888.05
1483.00	30980.11
1484.00	30903.65
1485.00	31033.94
1486.00	31169.69
1487.00	31466.16
1488.00	31640.92
1489.00	31628.44
1490.00	31502.05
1491.00	31388.92
1492.00	31065.15
1493.00	30792.09
1494.00	30130.50
1495.00	29563.31
1496.00	28925.12
1497.00	28534.25
1498.00	28360.27
1499.00	28459.35
1500.00	28865.05
1501.00	29149.81
1502.00	29401.03
1503.00	29549.26
1504.00	29725.58
1505.00	29842.61
1506.00	29705.30
1507.00	29507.13
1508.00	29101.44
1509.00	29071.79
1510.00	28961.01
1511.00	28961.79
1512.00	28842.42
1513.00	28911.86
1514.00	29024.20
1515.00	29154.49
1516.00	29193.50
1517.00	29286.34
1518.00	29194.28
1519.00	29135.77
1520.00	28850.22
1521.00	28596.67
1522.00	28435.95
1523.00	28526.45
1524.00	28582.62
1525.00	28754.26
1526.00	28760.50
1527.00	28987.53
1528.00	29115.48
1529.00	29294.14
1530.00	29365.14
1531.00	29362.02
1532.00	29244.99
1533.00	29122.51
1534.00	28918.10
1535.00	28763.62
1536.00	28621.63
1537.00	28569.36
1538.00	28682.48
1539.00	28595.89
1540.00	28603.69
1541.00	28548.29
1542.00	28754.26
1543.00	28846.32
1544.00	28881.43
1545.00	28900.93
1546.00	29043.71
1547.00	29042.93
1548.00	28870.51
1549.00	28534.25
1550.00	28459.35
1551.00	28346.23
1552.00	28276.79
1553.00	28119.98
1554.00	28233.88
1555.00	28353.25
1556.00	28550.63
1557.00	28588.08
1558.00	28595.89
1559.00	28766.74
1560.00	28834.62
1561.00	28939.94
1562.00	28822.14
1563.00	28908.74
1564.00	28850.22
1565.00	28723.83
1566.00	28662.20
1567.00	28552.20
1568.00	28499.92
1569.00	28312.68
1570.00	28435.95
1571.00	28324.38
1572.00	28219.84
1573.00	28009.19
1574.00	27856.28
1575.00	27714.28
1576.00	27488.03
1577.00	27282.06
1578.00	27271.14
1579.00	27204.05
1580.00	27381.15
1581.00	27342.92
1582.00	27381.93
1583.00	27291.43
1584.00	27092.48
1585.00	26977.79
1586.00	26884.95
1587.00	26834.24
1588.00	26895.88
1589.00	26780.41
1590.00	26806.94
1591.00	26618.13
1592.00	26710.97
1593.00	26796.79
1594.00	26804.60
1595.00	26813.18
1596.00	26930.20
1597.00	26891.98
1598.00	26899.00
1599.00	26642.32
1600.00	26727.36
1601.00	26498.77
1602.00	26402.02
1603.00	26241.31
1604.00	26268.61
1605.00	26432.45
1606.00	26415.29
1607.00	26249.11
1608.00	26196.84
1609.00	26231.94
1610.00	26427.77
1611.00	26292.80
1612.00	26059.52
1613.00	26050.16
1614.00	26012.71
1615.00	26137.54
1616.00	25923.77
1617.00	25715.47
1618.00	25628.09
1619.00	25504.82
1620.00	25542.27
1621.00	25402.61
1622.00	25384.67
1623.00	25294.17
1624.00	25310.55
1625.00	25172.46
1626.00	25021.11
1627.00	24861.17
1628.00	24883.80
1629.00	24762.87
1630.00	24687.97
1631.00	24575.62
1632.00	24631.02
1633.00	24542.08
1634.00	24529.59
1635.00	24528.03
1636.00	24559.24
1637.00	24539.74
1638.00	24402.43
1639.00	24286.18
1640.00	23965.53
1641.00	23758.78
1642.00	23585.58
1643.00	23457.63
1644.00	23385.85
1645.00	23425.64
1646.00	23726.01
1647.00	24059.15
1648.00	24309.58
1649.00	24571.72
1650.00	24616.97
1651.00	24610.73
1652.00	24572.50
1653.00	24684.85
1654.00	24623.22
1655.00	24460.94
1656.00	24063.83
1657.00	23891.41
1658.00	23704.95
1659.00	23708.85
1660.00	23786.86
1661.00	24008.44
1662.00	24178.51
1663.00	24208.94
1664.00	24276.04
1665.00	24272.14
1666.00	24319.73
1667.00	24221.42
1668.00	24183.98
1669.00	24137.16
1670.00	24045.10
1671.00	24113.76
1672.00	24063.83
1673.00	24133.26
1674.00	24025.60
1675.00	23885.17
1676.00	23698.70
1677.00	23484.16
1678.00	23425.64
1679.00	23279.75
1680.00	23098.75
1681.00	22877.18
1682.00	22703.98
1683.00	22473.04
1684.00	22201.54
1685.00	21733.43
1686.00	21116.31
1687.00	20199.60
1688.00	19282.11
1689.00	18480.87
1690.00	18199.23
1691.00	18414.55
1692.00	18934.93
1693.00	19640.22
1694.00	20231.59
1695.00	20847.93
1696.00	21322.28
1697.00	21624.21
1698.00	21955.79
1699.00	22103.24
1700.00	22387.22
1701.00	22486.31
1702.00	22657.17
1703.00	22719.58
1704.00	22685.25
1705.00	22627.52
1706.00	22519.85
1707.00	22604.11
1708.00	22655.61
1709.00	22551.84
1710.00	22339.63
1711.00	22191.40
1712.00	22301.40
1713.00	22336.51
1714.00	22359.92
1715.00	22320.13
1716.00	22288.92
1717.00	22367.72
1718.00	22431.69
1719.00	22549.50
1720.00	22572.13
1721.00	22443.40
1722.00	22460.56
1723.00	22366.94
1724.00	22402.05
1725.00	22281.90
1726.00	22201.54
1727.00	22199.20
1728.00	22058.77
1729.00	22118.06
1730.00	22068.13
1731.00	22114.16
1732.00	22010.40
1733.00	21944.08
1734.00	22094.66
1735.00	21993.23
1736.00	21809.89
1737.00	21447.89
1738.00	21401.86
1739.00	21338.66
1740.00	21339.44
1741.00	21282.49
1742.00	21358.95
1743.00	21408.88
1744.00	21414.34
1745.00	21280.93
1746.00	21250.50
1747.00	21108.51
1748.00	21194.33
1749.00	21163.12
1750.00	21172.49
1751.00	21134.26
1752.00	21143.62
1753.00	21244.26
1754.00	21181.85
1755.00	20981.34
1756.00	20805.80
1757.00	20716.86
1758.00	20707.50
1759.00	20680.19
1760.00	20531.96
1761.00	20393.09
1762.00	20300.25
1763.00	20293.22
1764.00	20286.98
1765.00	20229.25
1766.00	20343.94
1767.00	20265.92
1768.00	20294.00
1769.00	20060.73
1770.00	20171.52
1771.00	20106.76
1772.00	20137.19
1773.00	20099.74
1774.00	20194.14
1775.00	20162.15
1776.00	20222.23
1777.00	20133.29
1778.00	20196.48
1779.00	20075.56
1780.00	19957.75
1781.00	19843.84
1782.00	19750.22
1783.00	19633.97
1784.00	19563.76
1785.00	19567.66
1786.00	19456.09
1787.00	19367.15
1788.00	19240.76
1789.00	19327.36
1790.00	19294.60
1791.00	19190.05
1792.00	19114.38
1793.00	19076.15
1794.00	19087.85
1795.00	18955.22
1796.00	18838.97
1797.00	18781.24
1798.00	18623.64
1799.00	18487.11
1800.00	18384.91
1801.00	18442.64
1802.00	18569.03
1803.00	18569.81
1804.00	18543.28
1805.00	18452.78
1806.00	18445.76
1807.00	18519.88
1808.00	18527.68
1809.00	18496.47
1810.00	18436.40
1811.00	18405.19
1812.00	18271.78
1813.00	18182.84
1814.00	18062.69
1815.00	18023.69
1816.00	17932.40
1817.00	17903.54
1818.00	17813.04
1819.00	17809.14
1820.00	17576.64
1821.00	17515.79
1822.00	17390.96
1823.00	17415.93
1824.00	17525.93
1825.00	17572.74
1826.00	17588.35
1827.00	17512.67
1828.00	17510.33
1829.00	17532.17
1830.00	17290.32
1831.00	17177.19
1832.00	17161.59
1833.00	17206.06
1834.00	17158.47
1835.00	17097.61
1836.00	16958.74
1837.00	16894.77
1838.00	16869.80
1839.00	17010.23
1840.00	16961.08
1841.00	16869.80
1842.00	16763.70
1843.00	16641.99
1844.00	16500.00
1845.00	16405.59
1846.00	16340.06
1847.00	16237.08
1848.00	16208.21
1849.00	16193.39
1850.00	16236.30
1851.00	16165.30
1852.00	16069.34
1853.00	15971.04
1854.00	15927.35
1855.00	15877.41
1856.00	15846.99
1857.00	15812.66
1858.00	15829.82
1859.00	15759.61
1860.00	15676.13
1861.00	15571.58
1862.00	15432.71
1863.00	15406.19
1864.00	15356.25
1865.00	15348.45
1866.00	15254.05
1867.00	15251.71
1868.00	15250.15
1869.00	15218.16
1870.00	15171.35
1871.00	15061.35
1872.00	15027.80
1873.00	14972.41
1874.00	15014.54
1875.00	14903.75
1876.00	14842.90
1877.00	14778.92
1878.00	14742.25
1879.00	14672.82
1880.00	14548.77
1881.00	14526.92
1882.00	14468.41
1883.00	14420.82
1884.00	14367.77
1885.00	14174.28
1886.00	14117.33
1887.00	13901.22
1888.00	13928.53
1889.00	13803.70
1890.00	13816.18
1891.00	13833.35
1892.00	13809.16
1893.00	13852.85
1894.00	13843.49
1895.00	13838.03
1896.00	13773.27
1897.00	13669.51
1898.00	13605.53
1899.00	13508.79
1900.00	13456.52
1901.00	13465.10
1902.00	13456.52
1903.00	13166.29
1904.00	12645.91
1905.00	11939.85
1906.00	11070.73
1907.00	10133.74
1908.00	9291.15
1909.00	8695.09
1910.00	8285.50
1911.00	8026.48
1912.00	8066.27
1913.00	8339.33
1914.00	8708.35
1915.00	9199.09
1916.00	9617.26
1917.00	10059.62
1918.00	10259.35
1919.00	10366.23
1920.00	10292.12
1921.00	10174.31
1922.00	10071.33
1923.00	9943.38
1924.00	9849.75
1925.00	9697.62
1926.00	9664.85
1927.00	9625.84
1928.00	9752.23
1929.00	9860.68
1930.00	9951.96
1931.00	10019.05
1932.00	10029.98
1933.00	10159.49
1934.00	10172.75
1935.00	10245.30
1936.00	10150.12
1937.00	10237.50
1938.00	10374.81
1939.00	10464.54
1940.00	10496.52
1941.00	10408.36
1942.00	10428.65
1943.00	10394.32
1944.00	10452.83
1945.00	10476.24
1946.00	10494.18
1947.00	10430.21
1948.00	10399.78
1949.00	10390.42
1950.00	10445.81
1951.00	10366.23
1952.00	10301.48
1953.00	10129.06
1954.00	10071.33
1955.00	9997.21
1956.00	9976.92
1957.00	9947.28
1958.00	9891.88
1959.00	9845.07
1960.00	9799.82
1961.00	9770.18
1962.00	9648.47
1963.00	9589.17
1964.00	9455.76
1965.00	9428.46
1966.00	9467.47
1967.00	9569.67
1968.00	9653.15
1969.00	9558.75
1970.00	9447.96
1971.00	9401.93
1972.00	9363.70
1973.00	9285.69
1974.00	9244.34
1975.00	9246.68
1976.00	9345.76
1977.00	9320.79
1978.00	9347.32
1979.00	9382.43
1980.00	9405.83
1981.00	9447.96
1982.00	9418.32
1983.00	9515.84
1984.00	9483.85
1985.00	9501.79
1986.00	9423.78
1987.00	9316.89
1988.00	9122.63
1989.00	8945.53
1990.00	8911.20
1991.00	8865.95
1992.00	8840.20
1993.00	8753.60
1994.00	8696.65
1995.00	8596.79
1996.00	8481.32
1997.00	8372.88
1998.00	8298.76
1999.00	8244.15
2000.00	8184.85
2001.00	8182.51
2002.00	8241.03
2003.00	8244.15
2004.00	8122.44
2005.00	7996.83
2006.00	7959.38
2007.00	7981.23
2008.00	7891.51
2009.00	7862.64
2010.00	7795.54
2011.00	7836.89
2012.00	7825.19
2013.00	7847.04
2014.00	7792.42
2015.00	7688.66
2016.00	7596.60
2017.00	7541.99
2018.00	7623.90
2019.00	7626.25
2020.00	7638.73
2021.00	7545.11
2022.00	7454.61
2023.00	7324.32
2024.00	7301.69
2025.00	7293.11
2026.00	7302.47
2027.00	7250.98
2028.00	7309.49
2029.00	7382.05
2030.00	7435.10
2031.00	7386.73
2032.00	7391.41
2033.00	7339.92
2034.00	7268.92
2035.00	7142.53
2036.00	7080.12
2037.00	7102.75
2038.00	7159.70
2039.00	7153.46
2040.00	7160.48
2041.00	7172.18
2042.00	7192.47
2043.00	7202.61
2044.00	7064.52
2045.00	6974.80
2046.00	6846.85
2047.00	6817.98
>>>>>End Processed Spectral Data<<<<<
