SpectraSuite Data File
++++++++++++++++++++++++++++++++++++
Date: Thu Nov 16 13:32:52 EST 2017
User: cheriyan
Dark Spectrum Present: No
Reference Spectrum Present: No
Number of Sampled Component Spectra: 1
Spectrometers: USB2+H05261
Integration Time (usec): 90000 (USB2+H05261)
Spectra Averaged: 1 (USB2+H05261)
Boxcar Smoothing: 1 (USB2+H05261)
Correct for Electrical Dark: No (USB2+H05261)
Strobe/Lamp Enabled: No (USB2+H05261)
Correct for Detector Non-linearity: No (USB2+H05261)
Correct for Stray Light: No (USB2+H05261)
Number of Pixels in Processed Spectrum: 2048
>>>>>Begin Processed Spectral Data<<<<<
0.00	428.32
1.00	428.32
2.00	368.24
3.00	300.37
4.00	260.58
5.00	259.80
6.00	261.36
7.00	241.86
8.00	230.93
9.00	241.86
10.00	223.91
11.00	241.08
12.00	256.68
13.00	271.50
14.00	278.52
15.00	283.20
16.00	279.30
17.00	266.82
18.00	253.56
19.00	268.38
20.00	280.08
21.00	279.30
22.00	297.25
23.00	753.65
24.00	2437.28
25.00	4186.44
26.00	5517.42
27.00	5589.98
28.00	5472.95
29.00	5252.16
30.00	5088.32
31.00	5067.26
32.00	5170.24
33.00	5196.77
34.00	5136.70
35.00	4990.02
36.00	4803.56
37.00	4716.96
38.00	4682.63
39.00	4812.14
40.00	4860.51
41.00	4873.78
42.00	4766.11
43.00	4734.12
44.00	4810.58
45.00	5043.07
46.00	5340.32
47.00	5584.52
48.00	5724.17
49.00	5735.87
50.00	5732.75
51.00	5749.92
52.00	5799.85
53.00	5817.01
54.00	5912.97
55.00	6156.39
56.00	6461.44
57.00	6684.57
58.00	6874.15
59.00	7124.59
60.00	7295.45
61.00	7339.92
62.00	7223.67
63.00	7030.97
64.00	6729.82
65.00	6469.24
66.00	6221.14
67.00	6069.01
68.00	5964.47
69.00	6020.64
70.00	6175.11
71.00	6342.85
72.00	6571.44
73.00	6828.12
74.00	6973.24
75.00	6912.38
76.00	6693.93
77.00	6432.57
78.00	6181.35
79.00	5837.30
80.00	5563.45
81.00	5319.26
82.00	5168.68
83.00	4923.71
84.00	4710.72
85.00	4555.46
86.00	4497.73
87.00	4515.67
88.00	4516.45
89.00	4596.03
90.00	4841.79
91.00	5286.49
92.00	5778.78
93.00	6142.35
94.00	6360.02
95.00	6513.71
96.00	6580.81
97.00	6536.34
98.00	6392.00
99.00	6211.00
100.00	6076.81
101.00	6094.76
102.00	6243.77
103.00	6487.18
104.00	6610.45
105.00	6588.61
106.00	6513.71
107.00	6450.52
108.00	6481.72
109.00	6505.13
110.00	6543.36
111.00	6522.29
112.00	6470.80
113.00	6438.81
114.00	6520.73
115.00	6718.90
116.00	7033.31
117.00	7417.16
118.00	7786.96
119.00	8099.81
120.00	8351.03
121.00	8443.09
122.00	8493.02
123.00	8457.92
124.00	8567.14
125.00	8761.41
126.00	9013.40
127.00	9324.69
128.00	9468.25
129.00	9494.77
130.00	9270.86
131.00	8943.19
132.00	8569.48
133.00	8165.35
134.00	7698.02
135.00	7114.45
136.00	6300.72
137.00	5528.35
138.00	4832.43
139.00	4642.06
140.00	4802.00
141.00	5401.96
142.00	6149.37
143.00	6968.56
144.00	7705.04
145.00	8344.01
146.00	8932.26
147.00	9391.01
148.00	9735.85
149.00	9991.75
150.00	10042.46
151.00	9798.26
152.00	9286.47
153.00	8514.87
154.00	7622.34
155.00	6697.83
156.00	6062.77
157.00	5820.91
158.00	6074.47
159.00	6806.28
160.00	7847.04
161.00	9066.46
162.00	10199.27
163.00	11157.33
164.00	11816.58
165.00	12237.10
166.00	12608.47
167.00	12922.10
168.00	13166.29
169.00	13397.23
170.00	13496.31
171.00	13680.43
172.00	13665.61
173.00	13784.20
174.00	13806.82
175.00	14069.74
176.00	14171.16
177.00	14403.66
178.00	14562.03
179.00	14870.98
180.00	15004.39
181.00	15114.40
182.00	15165.89
183.00	15284.48
184.00	15360.16
185.00	15487.32
186.00	15497.47
187.00	15515.41
188.00	15296.18
189.00	15076.95
190.00	14927.94
191.00	15034.82
192.00	15296.96
193.00	15566.90
194.00	15609.81
195.00	15441.29
196.00	15158.09
197.00	14941.98
198.00	15076.95
199.00	15252.49
200.00	15490.45
201.00	15570.02
202.00	15458.46
203.00	15300.86
204.00	15069.15
205.00	15035.60
206.00	14940.42
207.00	15013.76
208.00	15126.10
209.00	15244.69
210.00	15395.26
211.00	15369.52
212.00	15408.53
213.00	15477.18
214.00	15680.03
215.00	16090.40
216.00	16432.12
217.00	16808.17
218.00	16961.08
219.00	17210.74
220.00	17302.80
221.00	17340.25
222.00	16941.58
223.00	16365.03
224.00	15699.53
225.00	15142.49
226.00	14978.65
227.00	15119.08
228.00	15639.46
229.00	16237.08
230.00	16860.44
231.00	17369.90
232.00	17800.55
233.00	18153.20
234.00	18380.23
235.00	18441.86
236.00	18602.58
237.00	18467.61
238.00	18551.09
239.00	18262.42
240.00	18234.33
241.00	18066.60
242.00	18102.48
243.00	18200.79
244.00	18465.27
245.00	18772.66
246.00	19002.03
247.00	18951.32
248.00	18814.01
249.00	18788.26
250.00	18955.22
251.00	19071.47
252.00	19036.36
253.00	18881.10
254.00	19092.53
255.00	19438.93
256.00	19849.30
257.00	20137.19
258.00	20350.18
259.00	20466.42
260.00	20418.83
261.00	20223.01
262.00	19864.13
263.00	19456.09
264.00	19183.03
265.00	19172.11
266.00	19271.97
267.00	19514.61
268.00	19671.42
269.00	19736.18
270.00	19746.32
271.00	19901.58
272.00	20262.80
273.00	20428.98
274.00	20365.78
275.00	20125.49
276.00	19866.47
277.00	19615.25
278.00	19527.09
279.00	19758.02
280.00	20229.25
281.00	20719.20
282.00	21299.66
283.00	21670.24
284.00	21828.62
285.00	21717.05
286.00	21781.03
287.00	21408.88
288.00	21161.56
289.00	20509.33
290.00	20061.51
291.00	19457.65
292.00	19248.57
293.00	19564.54
294.00	20020.94
295.00	20443.80
296.00	20475.79
297.00	20373.58
298.00	20354.08
299.00	20500.75
300.00	20749.63
301.00	20540.54
302.00	20515.58
303.00	20272.94
304.00	20301.03
305.00	20205.84
306.00	20173.86
307.00	20144.21
308.00	19904.70
309.00	19907.82
310.00	20031.86
311.00	20340.82
312.00	20308.83
313.00	20130.17
314.00	19631.63
315.00	19128.42
316.00	18750.03
317.00	18758.61
318.00	19094.09
319.00	19463.90
320.00	19850.86
321.00	19939.80
322.00	19768.16
323.00	19435.81
324.00	19210.34
325.00	19074.59
326.00	19019.19
327.00	18912.31
328.00	18461.37
329.00	17762.33
330.00	16816.75
331.00	16040.47
332.00	15277.46
333.00	14714.17
334.00	14547.21
335.00	14716.51
336.00	15421.79
337.00	16647.45
338.00	18285.05
339.00	20052.15
340.00	21354.27
341.00	22114.16
342.00	21852.02
343.00	21285.61
344.00	20661.47
345.00	20860.41
346.00	21378.45
347.00	22112.60
348.00	22498.01
349.00	22387.22
350.00	21660.88
351.00	20649.77
352.00	19818.10
353.00	19750.22
354.00	20234.71
355.00	21025.03
356.00	21591.44
357.00	22086.86
358.00	22284.24
359.00	22612.70
360.00	22789.02
361.00	23321.88
362.00	23562.95
363.00	23873.46
364.00	23970.21
365.00	24121.56
366.00	24065.39
367.00	23935.10
368.00	23566.85
369.00	23168.96
370.00	22920.09
371.00	22682.91
372.00	22476.94
373.00	22018.98
374.00	21551.65
375.00	21227.88
376.00	20944.67
377.00	20943.89
378.00	21241.92
379.00	21896.49
380.00	22700.86
381.00	23418.62
382.00	23986.59
383.00	24252.63
384.00	24113.76
385.00	23736.93
386.00	23715.87
387.00	23819.63
388.00	24257.31
389.00	24717.62
390.00	25412.76
391.00	25783.34
392.00	26174.21
393.00	26386.42
394.00	26856.87
395.00	26959.85
396.00	27248.52
397.00	27523.14
398.00	27804.78
399.00	27883.58
400.00	27514.56
401.00	27444.34
402.00	27362.42
403.00	27676.05
404.00	27899.19
405.00	28027.14
406.00	28213.60
407.00	28011.53
408.00	27823.51
409.00	27750.95
410.00	28138.70
411.00	28369.63
412.00	27923.37
413.00	27019.14
414.00	26340.39
415.00	25855.90
416.00	25860.58
417.00	25850.44
418.00	26317.76
419.00	26686.79
420.00	27149.43
421.00	27679.18
422.00	28117.64
423.00	28589.64
424.00	28840.08
425.00	28913.42
426.00	28884.55
427.00	28623.19
428.00	28515.53
429.00	28370.41
430.00	28397.72
431.00	28311.90
432.00	28373.53
433.00	28283.81
434.00	28441.41
435.00	28534.25
436.00	28826.82
437.00	29184.92
438.00	29375.28
439.00	29797.36
440.00	30138.30
441.00	30717.19
442.00	30838.12
443.00	30803.01
444.00	30496.40
445.00	30335.68
446.00	30178.87
447.00	30251.42
448.00	30128.94
449.00	29937.01
450.00	29553.16
451.00	29078.82
452.00	28594.32
453.00	28004.51
454.00	27743.15
455.00	27633.92
456.00	27968.62
457.00	28457.01
458.00	28922.78
459.00	29290.24
460.00	29497.77
461.00	29678.77
462.00	29756.01
463.00	29541.46
464.00	29379.96
465.00	29202.86
466.00	29170.88
467.00	29476.71
468.00	29657.71
469.00	30252.98
470.00	30620.45
471.00	31051.11
472.00	31179.06
473.00	31090.12
474.00	31292.96
475.00	31375.66
476.00	31567.59
477.00	31693.19
478.00	31867.95
479.00	31973.28
480.00	31676.03
481.00	31279.70
482.00	30803.79
483.00	30367.67
484.00	30498.74
485.00	30690.66
486.00	31075.29
487.00	31005.86
488.00	31039.40
489.00	30923.94
490.00	30895.07
491.00	30806.13
492.00	30967.63
493.00	31091.68
494.00	31186.86
495.00	31225.87
496.00	31612.06
497.00	31835.97
498.00	32185.49
499.00	32169.88
500.00	32205.77
501.00	32077.82
502.00	32245.56
503.00	32386.77
504.00	32625.51
505.00	32640.33
506.00	32728.49
507.00	32836.16
508.00	32806.51
509.00	32719.13
510.00	32741.75
511.00	32663.74
512.00	32585.72
513.00	32396.14
514.00	32246.34
515.00	32126.19
516.00	31867.17
517.00	31681.49
518.00	31562.12
519.00	31344.45
520.00	31483.33
521.00	31587.87
522.00	31869.51
523.00	32016.97
524.00	32212.79
525.00	32554.51
526.00	32262.72
527.00	31793.06
528.00	30950.46
529.00	30523.71
530.00	30386.40
531.00	30513.56
532.00	30844.36
533.00	31308.57
534.00	31514.53
535.00	31755.61
536.00	31619.86
537.00	31500.49
538.00	31476.30
539.00	31556.66
540.00	31899.94
541.00	31870.29
542.00	31886.68
543.00	31913.20
544.00	31993.56
545.00	32002.93
546.00	31478.64
547.00	31116.64
548.00	30854.50
549.00	31123.66
550.00	31133.03
551.00	31080.75
552.00	31155.65
553.00	31379.56
554.00	31768.87
555.00	32033.35
556.00	32614.59
557.00	33150.57
558.00	33921.38
559.00	34184.30
560.00	34454.25
561.00	34224.09
562.00	33812.16
563.00	33324.55
564.00	32951.62
565.00	33121.70
566.00	33396.32
567.00	33362.00
568.00	33504.77
569.00	33443.13
570.00	34072.74
571.00	34610.28
572.00	34980.09
573.00	34899.73
574.00	34649.29
575.00	34682.06
576.00	34979.31
577.00	35013.63
578.00	35006.61
579.00	34762.42
580.00	34749.93
581.00	34611.84
582.00	34537.73
583.00	34472.97
584.00	34629.01
585.00	35050.30
586.00	35672.10
587.00	36099.64
588.00	36421.86
589.00	36793.22
590.00	37250.41
591.00	37639.72
592.00	37887.81
593.00	38054.77
594.00	38043.85
595.00	37775.47
596.00	37855.82
597.00	38113.28
598.00	38735.87
599.00	39114.25
600.00	39694.71
601.00	39886.63
602.00	39927.20
603.00	39810.95
604.00	39910.03
605.00	40446.80
606.00	40700.36
607.00	40804.12
608.00	40785.40
609.00	41087.32
610.00	41621.75
611.00	41820.69
612.00	41999.35
613.00	42192.84
614.00	42409.73
615.00	42505.69
616.00	42366.82
617.00	42537.68
618.00	42738.18
619.00	42841.95
620.00	43029.97
621.00	43059.62
622.00	43312.39
623.00	43619.78
624.00	43706.38
625.00	43608.86
626.00	43231.26
627.00	43266.36
628.00	43543.33
629.00	44075.41
630.00	44463.94
631.00	44387.48
632.00	43643.19
633.00	42731.94
634.00	41374.43
635.00	39672.86
636.00	37954.13
637.00	37178.63
638.00	37489.92
639.00	38407.41
640.00	39632.29
641.00	40718.30
642.00	41847.22
643.00	42704.63
644.00	43701.70
645.00	44465.50
646.00	45457.88
647.00	46183.45
648.00	46741.28
649.00	46911.36
650.00	46630.49
651.00	46429.99
652.00	46011.03
653.00	46157.70
654.00	46500.20
655.00	47572.17
656.00	48681.58
657.00	49626.38
658.00	49861.21
659.00	50106.19
660.00	50283.29
661.00	50363.65
662.00	50261.44
663.00	49955.61
664.00	49913.48
665.00	49772.27
666.00	49836.25
667.00	49678.65
668.00	49274.52
669.00	48651.94
670.00	48332.06
671.00	48476.40
672.00	48928.90
673.00	49765.25
674.00	50639.05
675.00	51422.35
676.00	51642.36
677.00	51615.83
678.00	51311.56
679.00	51090.77
680.00	50897.29
681.00	51267.09
682.00	51844.43
683.00	52499.78
684.00	53021.72
685.00	53377.48
686.00	53681.75
687.00	53787.07
688.00	53542.88
689.00	53180.09
690.00	52747.09
691.00	52577.01
692.00	52650.35
693.00	52930.44
694.00	53467.98
695.00	53862.75
696.00	54019.56
697.00	54020.34
698.00	54016.44
699.00	54161.56
700.00	54365.18
701.00	54589.87
702.00	54488.45
703.00	54161.56
704.00	53493.72
705.00	53040.44
706.00	52859.44
707.00	53010.01
708.00	53439.11
709.00	53805.02
710.00	54335.54
711.00	54680.38
712.00	54782.58
713.00	54788.82
714.00	54557.89
715.00	54347.24
716.00	53783.17
717.00	53542.10
718.00	53170.73
719.00	53208.18
720.00	53083.35
721.00	53177.75
722.00	53027.96
723.00	52900.01
724.00	52808.73
725.00	52700.28
726.00	52805.61
727.00	53088.03
728.00	53482.02
729.00	53716.86
730.00	53962.61
731.00	54273.12
732.00	54550.09
733.00	54583.63
734.00	54472.07
735.00	54244.26
736.00	53804.23
737.00	53309.60
738.00	52965.54
739.00	53059.16
740.00	53450.81
741.00	54032.83
742.00	54346.46
743.00	54487.67
744.00	54602.36
745.00	54919.89
746.00	55267.85
747.00	55625.17
748.00	55900.57
749.00	56160.37
750.00	56174.42
751.00	55961.43
752.00	55714.89
753.00	55391.12
754.00	55231.18
755.00	55068.12
756.00	55107.91
757.00	55050.96
758.00	54949.54
759.00	54645.27
760.00	54320.71
761.00	54168.58
762.00	54325.39
763.00	54702.22
764.00	55099.33
765.00	55346.65
766.00	55761.70
767.00	56111.22
768.00	56310.17
769.00	56172.08
770.00	55944.26
771.00	55686.03
772.00	55643.90
773.00	55598.65
774.00	55700.85
775.00	55674.32
776.00	55584.60
777.00	55602.55
778.00	55707.09
779.00	56019.94
780.00	56199.38
781.00	56517.70
782.00	56743.17
783.00	56825.87
784.00	56554.36
785.00	56102.64
786.00	55736.74
787.00	55519.07
788.00	55458.99
789.00	55519.07
790.00	55540.13
791.00	55514.39
792.00	55430.13
793.00	55217.14
794.00	55220.26
795.00	55098.55
796.00	55110.25
797.00	54956.56
798.00	55070.46
799.00	55183.59
800.00	55256.93
801.00	55247.57
802.00	55390.34
803.00	55553.40
804.00	55828.02
805.00	56009.02
806.00	56130.73
807.00	55817.88
808.00	55114.15
809.00	54017.22
810.00	52614.46
811.00	51253.05
812.00	50030.51
813.00	49623.26
814.00	50113.21
815.00	51330.29
816.00	52699.50
817.00	53496.06
818.00	53700.47
819.00	53126.26
820.00	52482.61
821.00	52194.73
822.00	52515.38
823.00	53115.34
824.00	53610.75
825.00	54084.32
826.00	54447.88
827.00	54865.28
828.00	55276.43
829.00	55645.46
830.00	55888.87
831.00	55860.01
832.00	55606.45
833.00	55348.21
834.00	55327.14
835.00	55446.51
836.00	55766.38
837.00	55962.99
838.00	56172.86
839.00	56196.26
840.00	56307.05
841.00	56431.10
842.00	56490.39
843.00	56206.40
844.00	55753.90
845.00	55350.55
846.00	55174.23
847.00	55054.08
848.00	55061.10
849.00	55286.57
850.00	55675.10
851.00	56119.02
852.00	56463.86
853.00	56786.08
854.00	57052.90
855.00	57213.62
856.00	57176.95
857.00	57004.53
858.00	56701.82
859.00	56388.97
860.00	56343.72
861.00	56470.11
862.00	56825.09
863.00	56915.59
864.00	56761.11
865.00	56151.79
866.00	55272.53
867.00	54195.88
868.00	53292.44
869.00	52665.17
870.00	52439.70
871.00	52685.46
872.00	53136.40
873.00	53848.71
874.00	54498.59
875.00	55112.59
876.00	55532.33
877.00	55703.19
878.00	55870.93
879.00	56074.55
880.00	56452.16
881.00	56782.96
882.00	56986.58
883.00	57162.12
884.00	57040.42
885.00	56731.46
886.00	56236.05
887.00	55886.53
888.00	55849.08
889.00	56003.56
890.00	56174.42
891.00	56380.38
892.00	56640.18
893.00	56902.32
894.00	56963.96
895.00	56929.63
896.00	56838.35
897.00	56729.90
898.00	56506.77
899.00	56328.89
900.00	56082.36
901.00	55731.28
902.00	55201.53
903.00	54617.96
904.00	54252.06
905.00	54178.72
906.00	54352.70
907.00	54763.85
908.00	55066.56
909.00	55609.57
910.00	55738.30
911.00	55778.09
912.00	55434.03
913.00	55242.10
914.00	55178.13
915.00	55346.65
916.00	55416.86
917.00	55657.16
918.00	55879.51
919.00	56162.71
920.00	56399.11
921.00	56619.12
922.00	56772.03
923.00	56718.20
924.00	56357.76
925.00	55921.64
926.00	55438.71
927.00	55053.30
928.00	54711.58
929.00	54575.05
930.00	54475.97
931.00	54696.76
932.00	54897.27
933.00	55270.19
934.00	55334.95
935.00	55338.07
936.00	55336.51
937.00	55484.74
938.00	55492.54
939.00	55498.78
940.00	55309.98
941.00	55074.37
942.00	54793.50
943.00	54585.97
944.00	54469.73
945.00	54220.85
946.00	54047.65
947.00	53868.99
948.00	53853.39
949.00	53680.97
950.00	53587.35
951.00	53372.80
952.00	53323.64
953.00	53309.60
954.00	53570.96
955.00	53858.85
956.00	54097.58
957.00	54198.23
958.00	54306.67
959.00	54539.16
960.00	54451.78
961.00	54330.08
962.00	54094.46
963.00	54094.46
964.00	54056.23
965.00	53953.25
966.00	53921.26
967.00	54123.33
968.00	54399.51
969.00	54610.94
970.00	54849.67
971.00	55217.92
972.00	55338.85
973.00	55083.73
974.00	54661.65
975.00	54518.10
976.00	54490.01
977.00	54498.59
978.00	54419.02
979.00	54404.19
980.00	54431.50
981.00	54557.11
982.00	54470.51
983.00	54403.41
984.00	54316.03
985.00	54382.35
986.00	54267.66
987.00	54121.77
988.00	54121.77
989.00	54094.46
990.00	54074.18
991.00	53631.82
992.00	53383.72
993.00	53062.29
994.00	53235.48
995.00	53333.79
996.00	53652.10
997.00	53952.47
998.00	54294.19
999.00	54452.56
1000.00	54425.26
1001.00	54275.46
1002.00	54128.01
1003.00	54084.32
1004.00	54126.45
1005.00	54043.75
1006.00	53942.33
1007.00	53793.31
1008.00	53817.50
1009.00	53636.50
1010.00	53611.53
1011.00	53527.27
1012.00	53556.14
1013.00	53400.10
1014.00	53385.28
1015.00	53394.64
1016.00	53573.30
1017.00	53764.45
1018.00	53989.14
1019.00	54096.02
1020.00	53972.75
1021.00	53784.73
1022.00	53508.55
1023.00	53130.94
1024.00	52910.93
1025.00	52891.43
1026.00	53200.38
1027.00	53420.39
1028.00	53556.14
1029.00	53526.49
1030.00	53443.01
1031.00	53584.22
1032.00	53782.39
1033.00	53964.95
1034.00	53954.03
1035.00	53909.56
1036.00	53872.89
1037.00	53847.93
1038.00	53813.60
1039.00	53695.01
1040.00	53485.14
1041.00	53276.83
1042.00	53168.39
1043.00	53200.38
1044.00	53144.20
1045.00	52947.60
1046.00	52545.81
1047.00	52347.64
1048.00	52250.90
1049.00	52156.50
1050.00	52165.86
1051.00	52026.99
1052.00	52251.68
1053.00	52307.07
1054.00	52472.47
1055.00	52402.25
1056.00	52262.60
1057.00	52055.07
1058.00	51572.14
1059.00	51058.79
1060.00	50691.32
1061.00	50630.47
1062.00	50688.20
1063.00	50827.07
1064.00	51076.73
1065.00	51171.91
1066.00	51170.35
1067.00	51130.56
1068.00	51231.21
1069.00	51520.65
1070.00	51782.01
1071.00	52257.92
1072.00	52428.00
1073.00	52485.73
1074.00	52223.59
1075.00	51945.07
1076.00	51546.40
1077.00	51247.59
1078.00	51082.19
1079.00	51070.49
1080.00	51051.76
1081.00	51113.40
1082.00	51256.95
1083.00	51331.07
1084.00	51478.52
1085.00	51611.15
1086.00	51735.98
1087.00	51705.55
1088.00	51354.47
1089.00	51078.29
1090.00	50853.60
1091.00	50935.52
1092.00	51023.68
1093.00	51076.73
1094.00	51157.09
1095.00	51146.17
1096.00	50967.51
1097.00	50803.67
1098.00	50556.35
1099.00	50447.13
1100.00	50142.86
1101.00	49856.53
1102.00	49585.81
1103.00	49380.62
1104.00	49446.16
1105.00	49448.50
1106.00	49595.17
1107.00	49696.59
1108.00	50050.02
1109.00	50257.54
1110.00	50525.14
1111.00	50419.82
1112.00	50568.83
1113.00	50456.49
1114.00	50294.21
1115.00	49957.95
1116.00	49591.27
1117.00	49148.91
1118.00	48815.77
1119.00	48531.79
1120.00	48559.09
1121.00	48362.49
1122.00	48577.04
1123.00	48620.73
1124.00	49041.24
1125.00	48901.59
1126.00	48953.08
1127.00	48688.60
1128.00	48504.48
1129.00	48166.66
1130.00	47857.71
1131.00	47444.22
1132.00	47068.95
1133.00	46639.86
1134.00	46558.72
1135.00	46536.09
1136.00	46674.96
1137.00	46893.41
1138.00	47423.15
1139.00	47728.20
1140.00	48094.89
1141.00	48194.75
1142.00	48433.49
1143.00	48408.52
1144.00	48375.75
1145.00	48356.25
1146.00	48364.83
1147.00	48111.27
1148.00	47965.38
1149.00	47869.42
1150.00	47940.41
1151.00	47873.32
1152.00	47739.91
1153.00	47715.72
1154.00	47496.49
1155.00	47423.93
1156.00	47278.04
1157.00	47100.16
1158.00	46820.86
1159.00	46426.87
1160.00	46292.68
1161.00	46004.79
1162.00	45918.97
1163.00	45687.26
1164.00	45722.37
1165.00	45715.34
1166.00	45627.96
1167.00	45565.55
1168.00	45876.06
1169.00	46192.81
1170.00	46305.94
1171.00	46172.53
1172.00	46126.50
1173.00	46053.94
1174.00	45830.03
1175.00	45741.87
1176.00	45547.61
1177.00	45230.07
1178.00	44832.18
1179.00	44524.01
1180.00	44373.44
1181.00	44435.85
1182.00	44607.49
1183.00	44860.27
1184.00	45031.91
1185.00	45147.37
1186.00	45370.50
1187.00	45542.14
1188.00	45713.78
1189.00	45640.45
1190.00	45646.69
1191.00	45536.68
1192.00	45432.14
1193.00	45343.20
1194.00	45290.93
1195.00	45276.88
1196.00	45127.87
1197.00	45278.44
1198.00	45402.49
1199.00	45589.73
1200.00	45659.95
1201.00	45810.53
1202.00	45974.36
1203.00	46022.73
1204.00	46071.89
1205.00	45979.04
1206.00	45966.56
1207.00	45964.22
1208.00	46126.50
1209.00	46112.45
1210.00	46044.58
1211.00	45880.74
1212.00	46000.11
1213.00	45962.66
1214.00	45840.17
1215.00	45571.79
1216.00	45477.39
1217.00	45381.43
1218.00	45395.47
1219.00	45308.09
1220.00	45275.32
1221.00	44930.48
1222.00	44728.42
1223.00	44353.15
1224.00	44051.22
1225.00	43582.34
1226.00	43362.32
1227.00	43381.05
1228.00	43541.77
1229.00	43496.52
1230.00	43558.93
1231.00	43750.07
1232.00	44078.53
1233.00	44231.44
1234.00	44221.30
1235.00	44124.56
1236.00	43991.15
1237.00	43887.39
1238.00	43758.66
1239.00	43584.68
1240.00	43186.78
1241.00	42767.83
1242.00	42115.60
1243.00	41238.68
1244.00	40018.48
1245.00	38880.20
1246.00	37899.51
1247.00	37431.41
1248.00	37114.66
1249.00	37172.39
1250.00	37354.17
1251.00	38128.89
1252.00	38981.62
1253.00	39988.05
1254.00	40519.35
1255.00	41171.58
1256.00	41600.68
1257.00	42027.44
1258.00	42032.90
1259.00	41755.94
1260.00	41470.39
1261.00	41305.77
1262.00	41303.43
1263.00	41219.17
1264.00	41131.79
1265.00	41135.70
1266.00	40991.36
1267.00	41056.12
1268.00	41188.75
1269.00	41381.45
1270.00	41326.84
1271.00	41189.53
1272.00	41294.07
1273.00	41457.91
1274.00	41575.72
1275.00	41437.62
1276.00	41215.27
1277.00	40875.90
1278.00	40514.67
1279.00	40217.43
1280.00	39847.62
1281.00	39831.24
1282.00	39673.64
1283.00	39797.69
1284.00	39680.66
1285.00	39913.16
1286.00	40128.48
1287.00	40382.04
1288.00	40360.20
1289.00	40399.21
1290.00	40416.37
1291.00	40582.55
1292.00	40592.69
1293.00	40563.04
1294.00	40528.72
1295.00	40560.70
1296.00	40606.73
1297.00	40577.87
1298.00	40443.68
1299.00	40300.90
1300.00	40101.18
1301.00	40025.50
1302.00	39970.11
1303.00	39904.57
1304.00	39900.67
1305.00	39903.01
1306.00	39841.38
1307.00	39781.31
1308.00	39758.68
1309.00	39841.38
1310.00	39859.32
1311.00	39899.89
1312.00	39981.03
1313.00	39963.09
1314.00	39963.87
1315.00	39785.21
1316.00	39711.09
1317.00	39657.26
1318.00	39550.37
1319.00	39447.39
1320.00	39321.78
1321.00	39306.18
1322.00	39353.77
1323.00	39257.81
1324.00	39316.32
1325.00	39097.87
1326.00	39008.15
1327.00	38792.04
1328.00	38715.58
1329.00	38772.53
1330.00	38788.14
1331.00	38930.13
1332.00	38883.32
1333.00	39132.98
1334.00	39269.51
1335.00	39395.12
1336.00	39352.21
1337.00	39496.54
1338.00	39604.98
1339.00	39725.13
1340.00	39553.49
1341.00	39505.12
1342.00	39420.86
1343.00	39484.06
1344.00	39443.49
1345.00	39303.84
1346.00	39196.95
1347.00	39042.48
1348.00	39056.52
1349.00	38919.21
1350.00	38765.51
1351.00	38753.81
1352.00	38725.72
1353.00	38793.60
1354.00	38593.87
1355.00	38405.07
1356.00	38355.14
1357.00	38450.32
1358.00	38494.79
1359.00	38446.42
1360.00	38395.71
1361.00	38605.58
1362.00	38632.88
1363.00	38627.42
1364.00	38319.25
1365.00	38249.81
1366.00	38021.22
1367.00	37755.18
1368.00	37521.13
1369.00	37469.64
1370.00	37576.52
1371.00	37462.61
1372.00	37307.36
1373.00	37232.46
1374.00	37234.80
1375.00	37309.70
1376.00	37370.55
1377.00	37231.68
1378.00	37093.59
1379.00	36806.48
1380.00	36614.56
1381.00	36371.92
1382.00	36286.89
1383.00	36375.83
1384.00	36402.35
1385.00	36453.06
1386.00	36432.00
1387.00	36713.64
1388.00	36842.37
1389.00	36817.41
1390.00	36595.06
1391.00	36342.28
1392.00	36294.69
1393.00	36149.57
1394.00	36004.46
1395.00	35747.00
1396.00	35732.96
1397.00	35772.75
1398.00	35995.88
1399.00	35968.57
1400.00	35995.88
1401.00	35688.49
1402.00	35363.15
1403.00	34944.98
1404.00	34804.55
1405.00	34605.60
1406.00	34653.97
1407.00	34684.40
1408.00	34918.45
1409.00	35112.72
1410.00	35428.69
1411.00	35422.45
1412.00	35388.90
1413.00	35137.68
1414.00	35122.86
1415.00	34955.90
1416.00	34694.54
1417.00	34423.82
1418.00	33932.31
1419.00	33469.66
1420.00	33141.99
1421.00	33169.29
1422.00	33318.31
1423.00	33243.41
1424.00	33283.98
1425.00	33411.93
1426.00	33691.23
1427.00	33819.96
1428.00	33881.60
1429.00	33899.54
1430.00	34032.17
1431.00	34079.76
1432.00	34315.37
1433.00	34378.57
1434.00	34444.88
1435.00	34375.45
1436.00	34129.69
1437.00	33929.19
1438.00	33681.87
1439.00	33637.40
1440.00	33564.06
1441.00	33453.28
1442.00	33509.45
1443.00	33594.49
1444.00	33630.38
1445.00	33610.09
1446.00	33649.88
1447.00	33704.49
1448.00	33763.79
1449.00	33756.77
1450.00	33968.98
1451.00	33856.63
1452.00	33828.54
1453.00	33380.72
1454.00	33104.54
1455.00	32716.01
1456.00	32471.81
1457.00	32506.14
1458.00	32607.56
1459.00	32733.17
1460.00	32691.82
1461.00	32708.99
1462.00	32615.37
1463.00	32297.05
1464.00	32045.05
1465.00	31786.82
1466.00	31750.15
1467.00	31642.48
1468.00	31663.55
1469.00	31829.73
1470.00	31905.40
1471.00	31924.91
1472.00	31658.09
1473.00	31308.57
1474.00	30999.62
1475.00	30942.66
1476.00	30873.23
1477.00	30953.58
1478.00	30705.49
1479.00	30584.56
1480.00	30338.02
1481.00	30212.42
1482.00	30226.46
1483.00	30242.84
1484.00	30433.21
1485.00	30313.84
1486.00	30508.88
1487.00	30572.86
1488.00	30827.98
1489.00	30700.03
1490.00	30596.26
1491.00	30536.19
1492.00	30393.42
1493.00	30076.66
1494.00	29459.54
1495.00	28863.49
1496.00	28316.58
1497.00	27974.08
1498.00	27792.30
1499.00	27866.42
1500.00	28201.11
1501.00	28622.41
1502.00	28994.56
1503.00	29052.29
1504.00	29131.87
1505.00	29005.48
1506.00	28905.62
1507.00	28712.91
1508.00	28646.60
1509.00	28510.85
1510.00	28357.93
1511.00	28006.85
1512.00	28047.42
1513.00	28137.14
1514.00	28461.69
1515.00	28537.37
1516.00	28547.51
1517.00	28567.80
1518.00	28602.13
1519.00	28549.07
1520.00	28449.99
1521.00	28066.14
1522.00	27874.22
1523.00	27751.73
1524.00	27903.09
1525.00	28020.11
1526.00	28077.07
1527.00	28247.15
1528.00	28453.89
1529.00	28648.94
1530.00	28719.15
1531.00	28715.25
1532.00	28669.22
1533.00	28550.63
1534.00	28329.84
1535.00	28111.39
1536.00	28021.67
1537.00	28002.17
1538.00	28120.76
1539.00	28207.36
1540.00	28347.79
1541.00	28384.46
1542.00	28468.72
1543.00	28482.76
1544.00	28435.95
1545.00	28400.84
1546.00	28489.78
1547.00	28422.69
1548.00	28328.28
1549.00	28094.23
1550.00	28006.07
1551.00	27765.78
1552.00	27505.20
1553.00	27485.69
1554.00	27537.18
1555.00	27641.73
1556.00	27623.78
1557.00	27774.36
1558.00	27922.59
1559.00	28065.36
1560.00	28071.61
1561.00	28065.36
1562.00	28113.73
1563.00	28158.99
1564.00	28048.20
1565.00	27858.62
1566.00	27789.96
1567.00	27835.99
1568.00	27917.91
1569.00	27806.34
1570.00	27856.28
1571.00	27884.36
1572.00	27731.45
1573.00	27527.82
1574.00	27259.44
1575.00	27175.18
1576.00	26994.96
1577.00	26807.72
1578.00	26822.54
1579.00	26776.51
1580.00	26767.15
1581.00	26648.56
1582.00	26697.71
1583.00	26617.35
1584.00	26560.40
1585.00	26478.48
1586.00	26512.03
1587.00	26441.03
1588.00	26451.95
1589.00	26348.97
1590.00	26341.95
1591.00	26258.47
1592.00	26297.48
1593.00	26387.20
1594.00	26403.58
1595.00	26402.02
1596.00	26353.65
1597.00	26199.96
1598.00	26124.28
1599.00	25991.65
1600.00	25986.19
1601.00	25908.17
1602.00	25856.68
1603.00	25789.58
1604.00	25780.22
1605.00	25788.80
1606.00	25875.40
1607.00	25962.78
1608.00	25952.64
1609.00	25729.51
1610.00	25691.28
1611.00	25617.94
1612.00	25695.96
1613.00	25425.24
1614.00	25412.76
1615.00	25430.70
1616.00	25404.95
1617.00	25286.37
1618.00	25167.78
1619.00	25060.90
1620.00	24868.19
1621.00	24677.05
1622.00	24680.17
1623.00	24606.05
1624.00	24595.91
1625.00	24565.48
1626.00	24542.08
1627.00	24451.58
1628.00	24358.74
1629.00	24260.43
1630.00	24216.74
1631.00	24048.22
1632.00	24010.00
1633.00	23946.80
1634.00	23907.01
1635.00	23949.92
1636.00	24027.94
1637.00	24232.35
1638.00	24171.49
1639.00	24020.14
1640.00	23690.12
1641.00	23341.38
1642.00	22998.88
1643.00	22789.80
1644.00	22784.34
1645.00	22959.88
1646.00	23136.98
1647.00	23434.22
1648.00	23687.00
1649.00	24046.66
1650.00	24231.57
1651.00	24350.93
1652.00	24314.27
1653.00	24254.19
1654.00	24060.71
1655.00	23814.95
1656.00	23523.94
1657.00	23190.03
1658.00	23025.41
1659.00	22935.69
1660.00	23094.85
1661.00	23154.14
1662.00	23277.41
1663.00	23411.60
1664.00	23593.38
1665.00	23780.62
1666.00	23776.72
1667.00	23749.42
1668.00	23690.12
1669.00	23616.79
1670.00	23588.70
1671.00	23541.11
1672.00	23559.83
1673.00	23464.65
1674.00	23360.89
1675.00	23254.00
1676.00	23140.10
1677.00	22928.67
1678.00	22578.37
1679.00	22412.97
1680.00	22322.47
1681.00	22312.33
1682.00	22196.08
1683.00	21924.58
1684.00	21593.00
1685.00	21073.40
1686.00	20520.26
1687.00	19776.75
1688.00	18981.74
1689.00	18289.73
1690.00	17979.22
1691.00	18019.00
1692.00	18395.05
1693.00	18990.33
1694.00	19618.37
1695.00	20255.00
1696.00	20684.09
1697.00	21089.79
1698.00	21392.50
1699.00	21618.75
1700.00	21774.78
1701.00	21831.74
1702.00	21930.04
1703.00	22036.92
1704.00	22166.43
1705.00	22263.18
1706.00	22233.53
1707.00	22101.68
1708.00	21969.05
1709.00	21968.27
1710.00	21963.59
1711.00	21883.23
1712.00	21812.23
1713.00	21782.59
1714.00	21812.23
1715.00	21857.48
1716.00	21812.23
1717.00	21913.66
1718.00	21923.02
1719.00	22008.84
1720.00	21982.31
1721.00	21878.55
1722.00	21815.35
1723.00	21796.63
1724.00	21723.29
1725.00	21748.26
1726.00	21605.49
1727.00	21685.06
1728.00	21595.34
1729.00	21618.75
1730.00	21598.46
1731.00	21604.70
1732.00	21578.18
1733.00	21533.71
1734.00	21541.51
1735.00	21494.70
1736.00	21387.04
1737.00	21193.55
1738.00	21069.50
1739.00	21040.64
1740.00	20944.67
1741.00	20789.42
1742.00	20705.16
1743.00	20678.63
1744.00	20841.69
1745.00	20749.63
1746.00	20737.15
1747.00	20676.29
1748.00	20613.10
1749.00	20636.50
1750.00	20560.83
1751.00	20695.80
1752.00	20670.83
1753.00	20694.24
1754.00	20634.94
1755.00	20519.48
1756.00	20455.50
1757.00	20296.35
1758.00	20237.83
1759.00	20144.99
1760.00	20137.19
1761.00	20116.12
1762.00	20064.63
1763.00	20044.35
1764.00	19946.83
1765.00	19981.15
1766.00	19963.99
1767.00	20020.94
1768.00	19844.62
1769.00	19677.66
1770.00	19570.00
1771.00	19560.64
1772.00	19590.28
1773.00	19617.59
1774.00	19654.26
1775.00	19690.15
1776.00	19696.39
1777.00	19660.50
1778.00	19635.53
1779.00	19559.08
1780.00	19487.30
1781.00	19519.29
1782.00	19576.24
1783.00	19517.73
1784.00	19316.44
1785.00	19026.21
1786.00	18987.21
1787.00	18943.52
1788.00	18934.15
1789.00	18838.97
1790.00	18782.80
1791.00	18870.96
1792.00	18859.26
1793.00	18735.99
1794.00	18629.88
1795.00	18564.35
1796.00	18510.52
1797.00	18470.73
1798.00	18284.26
1799.00	18260.08
1800.00	17980.00
1801.00	17951.91
1802.00	17840.34
1803.00	17851.27
1804.00	17849.71
1805.00	17842.68
1806.00	18026.81
1807.00	17994.04
1808.00	17936.31
1809.00	17806.02
1810.00	17855.17
1811.00	17853.61
1812.00	17705.37
1813.00	17534.51
1814.00	17461.96
1815.00	17454.16
1816.00	17376.14
1817.00	17389.40
1818.00	17425.29
1819.00	17389.40
1820.00	17283.30
1821.00	17147.54
1822.00	17092.15
1823.00	17104.64
1824.00	17074.21
1825.00	17170.17
1826.00	17191.23
1827.00	17220.10
1828.00	17242.73
1829.00	17207.62
1830.00	16997.75
1831.00	16862.00
1832.00	16691.14
1833.00	16808.95
1834.00	16805.05
1835.00	16737.17
1836.00	16451.63
1837.00	16319.78
1838.00	16396.23
1839.00	16623.26
1840.00	16677.10
1841.00	16567.87
1842.00	16435.24
1843.00	16269.84
1844.00	16227.71
1845.00	16106.01
1846.00	16063.88
1847.00	15858.69
1848.00	15891.46
1849.00	15827.48
1850.00	15896.14
1851.00	15763.51
1852.00	15677.69
1853.00	15597.33
1854.00	15523.21
1855.00	15490.45
1856.00	15431.93
1857.00	15449.88
1858.00	15463.92
1859.00	15434.27
1860.00	15377.32
1861.00	15289.94
1862.00	15124.54
1863.00	15100.36
1864.00	14991.13
1865.00	14998.15
1866.00	14853.82
1867.00	14909.21
1868.00	14868.64
1869.00	14849.14
1870.00	14747.72
1871.00	14691.54
1872.00	14628.35
1873.00	14625.23
1874.00	14549.55
1875.00	14547.99
1876.00	14392.73
1877.00	14337.34
1878.00	14278.05
1879.00	14225.78
1880.00	14199.25
1881.00	14078.32
1882.00	14065.84
1883.00	14064.28
1884.00	14029.17
1885.00	13934.77
1886.00	13777.17
1887.00	13643.76
1888.00	13469.00
1889.00	13445.60
1890.00	13502.55
1891.00	13500.99
1892.00	13519.71
1893.00	13377.72
1894.00	13380.06
1895.00	13318.43
1896.00	13366.80
1897.00	13224.81
1898.00	13106.22
1899.00	12970.47
1900.00	12864.36
1901.00	12833.16
1902.00	12826.14
1903.00	12795.71
1904.00	12437.61
1905.00	11753.39
1906.00	10907.68
1907.00	9882.52
1908.00	9078.16
1909.00	8453.23
1910.00	8127.90
1911.00	7903.99
1912.00	7893.85
1913.00	8136.48
1914.00	8542.96
1915.00	9012.62
1916.00	9462.01
1917.00	9824.79
1918.00	10034.66
1919.00	10039.34
1920.00	10006.57
1921.00	9901.25
1922.00	9747.55
1923.00	9600.10
1924.00	9480.73
1925.00	9508.82
1926.00	9431.58
1927.00	9434.70
1928.00	9454.20
1929.00	9575.13
1930.00	9635.99
1931.00	9724.15
1932.00	9777.20
1933.00	9877.84
1934.00	9913.73
1935.00	9971.46
1936.00	9966.00
1937.00	9973.80
1938.00	9963.66
1939.00	10051.82
1940.00	10132.96
1941.00	10164.17
1942.00	10115.80
1943.00	10080.69
1944.00	10122.82
1945.00	10137.64
1946.00	10180.55
1947.00	10179.77
1948.00	10171.19
1949.00	10160.27
1950.00	10062.74
1951.00	10065.08
1952.00	9918.41
1953.00	9867.70
1954.00	9717.12
1955.00	9643.01
1956.00	9543.14
1957.00	9562.65
1958.00	9533.78
1959.00	9444.06
1960.00	9351.22
1961.00	9202.21
1962.00	9213.91
1963.00	9226.39
1964.00	9283.34
1965.00	9312.21
1966.00	9258.38
1967.00	9266.96
1968.00	9251.36
1969.00	9205.33
1970.00	9211.57
1971.00	9127.31
1972.00	9101.56
1973.00	9021.20
1974.00	9024.33
1975.00	9044.61
1976.00	9083.62
1977.00	9056.31
1978.00	9034.47
1979.00	9031.35
1980.00	9075.82
1981.00	9109.36
1982.00	9100.00
1983.00	9066.46
1984.00	9036.03
1985.00	8947.87
1986.00	8853.47
1987.00	8776.23
1988.00	8675.59
1989.00	8638.92
1990.00	8535.93
1991.00	8443.87
1992.00	8435.29
1993.00	8423.59
1994.00	8483.66
1995.00	8383.02
1996.00	8299.54
1997.00	8184.85
1998.00	8180.95
1999.00	8092.79
2000.00	8050.66
2001.00	7937.54
2002.00	7939.10
2003.00	7961.72
2004.00	7975.77
2005.00	7952.36
2006.00	7870.44
2007.00	7782.28
2008.00	7659.01
2009.00	7588.80
2010.00	7527.94
2011.00	7558.37
2012.00	7530.28
2013.00	7536.52
2014.00	7487.37
2015.00	7492.05
2016.00	7474.89
2017.00	7424.18
2018.00	7407.80
2019.00	7310.27
2020.00	7303.25
2021.00	7254.10
2022.00	7279.07
2023.00	7195.59
2024.00	7137.07
2025.00	7067.64
2026.00	7082.46
2027.00	7011.46
2028.00	7098.06
2029.00	7080.90
2030.00	7186.22
2031.00	7176.08
2032.00	7208.07
2033.00	7162.04
2034.00	7049.69
2035.00	6991.18
2036.00	6935.79
2037.00	6977.14
2038.00	6973.24
2039.00	6943.59
2040.00	6896.78
2041.00	6854.65
2042.00	6891.32
2043.00	6764.15
2044.00	6745.42
2045.00	6668.19
2046.00	6721.24
2047.00	6707.98
>>>>>End Processed Spectral Data<<<<<
