SpectraSuite Data File
++++++++++++++++++++++++++++++++++++
Date: Thu Nov 16 13:32:50 EST 2017
User: cheriyan
Dark Spectrum Present: No
Reference Spectrum Present: No
Number of Sampled Component Spectra: 1
Spectrometers: USB2+H05261
Integration Time (usec): 90000 (USB2+H05261)
Spectra Averaged: 1 (USB2+H05261)
Boxcar Smoothing: 1 (USB2+H05261)
Correct for Electrical Dark: No (USB2+H05261)
Strobe/Lamp Enabled: No (USB2+H05261)
Correct for Detector Non-linearity: No (USB2+H05261)
Correct for Stray Light: No (USB2+H05261)
Number of Pixels in Processed Spectrum: 2048
>>>>>Begin Processed Spectral Data<<<<<
0.00	428.32
1.00	428.32
2.00	376.05
3.00	333.14
4.00	272.28
5.00	256.68
6.00	230.93
7.00	233.27
8.00	223.91
9.00	244.20
10.00	247.32
11.00	255.12
12.00	241.08
13.00	232.49
14.00	241.08
15.00	255.90
16.00	255.90
17.00	260.58
18.00	255.90
19.00	253.56
20.00	263.70
21.00	280.08
22.00	299.59
23.00	747.41
24.00	2353.80
25.00	4151.33
26.00	5526.00
27.00	5695.30
28.00	5575.16
29.00	5366.07
30.00	5216.27
31.00	5182.73
32.00	5237.34
33.00	5281.81
34.00	5227.20
35.00	5073.50
36.00	4829.31
37.00	4726.32
38.00	4659.23
39.00	4720.08
40.00	4800.44
41.00	4891.72
42.00	4855.83
43.00	4737.24
44.00	4817.60
45.00	5007.97
46.00	5361.39
47.00	5588.42
48.00	5812.33
49.00	5849.00
50.00	5813.11
51.00	5696.86
52.00	5703.89
53.00	5764.74
54.00	6023.76
55.00	6223.48
56.00	6473.14
57.00	6661.16
58.00	6916.28
59.00	7183.88
60.00	7346.16
61.00	7368.01
62.00	7179.20
63.00	6959.19
64.00	6659.60
65.00	6399.80
66.00	6170.43
67.00	6067.45
68.00	6017.52
69.00	6041.70
70.00	6180.57
71.00	6453.64
72.00	6711.10
73.00	6897.56
74.00	6974.02
75.00	6860.11
76.00	6712.66
77.00	6387.32
78.00	6186.04
79.00	5889.57
80.00	5652.39
81.00	5355.93
82.00	5110.17
83.00	4943.99
84.00	4776.25
85.00	4650.64
86.00	4562.48
87.00	4550.00
88.00	4547.66
89.00	4575.75
90.00	4797.32
91.00	5146.84
92.00	5582.18
93.00	5995.67
94.00	6374.06
95.00	6659.60
96.00	6649.46
97.00	6502.79
98.00	6303.06
99.00	6195.40
100.00	6149.37
101.00	6238.31
102.00	6404.49
103.00	6556.62
104.00	6632.30
105.00	6601.87
106.00	6573.78
107.00	6534.78
108.00	6579.25
109.00	6638.54
110.00	6659.60
111.00	6650.24
112.00	6580.03
113.00	6580.03
114.00	6626.84
115.00	6777.41
116.00	7021.61
117.00	7389.07
118.00	7835.33
119.00	8202.80
120.00	8467.28
121.00	8549.98
122.00	8596.79
123.00	8596.79
124.00	8643.60
125.00	8714.59
126.00	8908.86
127.00	9245.90
128.00	9497.11
129.00	9538.46
130.00	9302.85
131.00	8968.15
132.00	8643.60
133.00	8208.26
134.00	7655.89
135.00	6947.49
136.00	6221.92
137.00	5517.42
138.00	4975.98
139.00	4728.66
140.00	4880.80
141.00	5393.37
142.00	6101.00
143.00	6935.79
144.00	7651.99
145.00	8411.89
146.00	9054.75
147.00	9589.17
148.00	9854.44
149.00	9994.87
150.00	10051.82
151.00	9880.18
152.00	9347.32
153.00	8557.00
154.00	7649.65
155.00	6770.39
156.00	6082.27
157.00	5830.27
158.00	6092.41
159.00	6863.23
160.00	7943.78
161.00	9171.00
162.00	10318.64
163.00	11172.94
164.00	11835.31
165.00	12285.47
166.00	12702.09
167.00	12970.47
168.00	13224.03
169.00	13500.21
170.00	13698.38
171.00	13720.22
172.00	13711.64
173.00	13827.10
174.00	13982.36
175.00	14030.73
176.00	14085.34
177.00	14244.50
178.00	14554.23
179.00	14883.47
180.00	15112.06
181.00	15189.30
182.00	15146.39
183.00	15244.69
184.00	15388.24
185.00	15531.01
186.00	15529.45
187.00	15452.22
188.00	15343.77
189.00	15104.26
190.00	14977.87
191.00	15105.82
192.00	15399.94
193.00	15722.94
194.00	15737.76
195.00	15558.32
196.00	15259.51
197.00	15131.56
198.00	15240.01
199.00	15378.10
200.00	15437.39
201.00	15396.82
202.00	15351.57
203.00	15311.78
204.00	15203.34
205.00	15034.82
206.00	14853.04
207.00	14895.17
208.00	15129.22
209.00	15371.86
210.00	15480.30
211.00	15497.47
212.00	15470.94
213.00	15616.83
214.00	15742.44
215.00	15998.34
216.00	16306.51
217.00	16731.71
218.00	17057.04
219.00	17316.84
220.00	17422.17
221.00	17369.90
222.00	16957.18
223.00	16352.54
224.00	15861.03
225.00	15421.79
226.00	15210.36
227.00	15307.88
228.00	15683.15
229.00	16382.19
230.00	16989.17
231.00	17612.53
232.00	17909.78
233.00	18285.05
234.00	18433.28
235.00	18611.16
236.00	18621.30
237.00	18562.79
238.00	18449.66
239.00	18241.36
240.00	18191.42
241.00	18164.90
242.00	18174.26
243.00	18249.16
244.00	18571.37
245.00	18828.83
246.00	19034.02
247.00	18964.58
248.00	18867.06
249.00	18817.91
250.00	18874.86
251.00	19008.27
252.00	19041.82
253.00	19032.46
254.00	19161.19
255.00	19463.11
256.00	19773.63
257.00	20102.08
258.00	20360.32
259.00	20502.31
260.00	20471.11
261.00	20175.42
262.00	19889.87
263.00	19509.15
264.00	19407.72
265.00	19336.73
266.00	19362.47
267.00	19371.05
268.00	19490.42
269.00	19662.06
270.00	19846.18
271.00	19989.74
272.00	20281.52
273.00	20473.45
274.00	20452.38
275.00	20197.26
276.00	19923.42
277.00	19549.71
278.00	19442.05
279.00	19618.37
280.00	20226.91
281.00	20808.14
282.00	21317.60
283.00	21724.07
284.00	21858.26
285.00	21883.23
286.00	21738.12
287.00	21495.48
288.00	20998.51
289.00	20470.33
290.00	19896.89
291.00	19474.04
292.00	19315.66
293.00	19600.43
294.00	20070.87
295.00	20350.96
296.00	20494.51
297.00	20393.87
298.00	20505.43
299.00	20551.46
300.00	20844.81
301.00	20688.00
302.00	20577.99
303.00	20319.75
304.00	20298.69
305.00	20362.66
306.00	20333.79
307.00	20231.59
308.00	20043.57
309.00	19881.29
310.00	20025.62
311.00	20258.90
312.00	20450.82
313.00	20333.79
314.00	19866.47
315.00	19276.65
316.00	18817.13
317.00	18723.51
318.00	19078.49
319.00	19475.60
320.00	19896.11
321.00	19986.61
322.00	19925.76
323.00	19573.12
324.00	19437.37
325.00	19270.41
326.00	19137.78
327.00	18871.74
328.00	18331.86
329.00	17638.28
330.00	16783.98
331.00	15996.00
332.00	15375.76
333.00	14783.60
334.00	14618.99
335.00	14760.20
336.00	15474.06
337.00	16649.79
338.00	18321.71
339.00	20260.46
340.00	21721.73
341.00	22450.42
342.00	22020.54
343.00	21458.03
344.00	20876.80
345.00	21021.13
346.00	21334.76
347.00	21946.42
348.00	22343.53
349.00	22324.81
350.00	21564.14
351.00	20511.67
352.00	19658.16
353.00	19559.08
354.00	20130.95
355.00	20989.92
356.00	21726.41
357.00	22079.05
358.00	22222.61
359.00	22352.12
360.00	22618.94
361.00	23246.98
362.00	23669.84
363.00	24080.21
364.00	24152.77
365.00	24093.47
366.00	23938.22
367.00	23825.87
368.00	23803.25
369.00	23403.80
370.00	23109.67
371.00	22721.92
372.00	22576.81
373.00	22053.31
374.00	21510.30
375.00	21101.49
376.00	20978.22
377.00	21172.49
378.00	21624.99
379.00	22150.83
380.00	22737.52
381.00	23376.49
382.00	23867.22
383.00	24382.92
384.00	24199.58
385.00	24081.77
386.00	23687.00
387.00	23854.74
388.00	24141.85
389.00	24712.94
390.00	25410.42
391.00	25988.53
392.00	26359.11
393.00	26631.40
394.00	26765.59
395.00	27007.44
396.00	27277.38
397.00	27543.42
398.00	27839.89
399.00	27843.79
400.00	27770.46
401.00	27624.56
402.00	27422.50
403.00	27615.98
404.00	27869.54
405.00	28141.82
406.00	28226.08
407.00	27959.26
408.00	27725.99
409.00	27775.14
410.00	28067.70
411.00	28237.00
412.00	27684.64
413.00	27030.07
414.00	26425.43
415.00	26062.65
416.00	25966.68
417.00	26111.02
418.00	26517.49
419.00	26874.03
420.00	27232.91
421.00	27610.52
422.00	28020.89
423.00	28393.04
424.00	28682.48
425.00	29053.07
426.00	29044.49
427.00	28925.90
428.00	28510.07
429.00	28488.22
430.00	28466.38
431.00	28502.26
432.00	28411.76
433.00	28319.70
434.00	28527.23
435.00	28595.10
436.00	28913.42
437.00	29117.82
438.00	29486.07
439.00	29799.70
440.00	30295.89
441.00	30781.17
442.00	31083.09
443.00	30997.27
444.00	30813.93
445.00	30580.66
446.00	30242.06
447.00	30106.31
448.00	30035.31
449.00	29908.93
450.00	29661.61
451.00	29326.91
452.00	28805.75
453.00	28059.12
454.00	27563.71
455.00	27520.80
456.00	27906.99
457.00	28407.86
458.00	29013.28
459.00	29301.95
460.00	29471.25
461.00	29491.53
462.00	29682.67
463.00	29642.10
464.00	29478.27
465.00	29336.27
466.00	29356.56
467.00	29697.50
468.00	29870.70
469.00	30332.56
470.00	30598.60
471.00	30987.13
472.00	31043.31
473.00	31035.50
474.00	31193.10
475.00	31322.61
476.00	31676.03
477.00	31909.30
478.00	32042.71
479.00	32013.07
480.00	31564.46
481.00	31241.47
482.00	30753.86
483.00	30352.07
484.00	30453.49
485.00	30645.41
486.00	30960.61
487.00	30729.67
488.00	30698.47
489.00	30842.02
490.00	31037.06
491.00	30987.13
492.00	30963.73
493.00	31060.47
494.00	31144.73
495.00	31277.36
496.00	31633.12
497.00	32054.42
498.00	32316.56
499.00	32286.13
500.00	32207.33
501.00	32269.75
502.00	32440.61
503.00	32582.60
504.00	32815.09
505.00	32896.23
506.00	33030.42
507.00	32985.95
508.00	32961.76
509.00	33021.06
510.00	32874.38
511.00	32712.89
512.00	32464.01
513.00	32300.17
514.00	32332.16
515.00	32289.25
516.00	32282.23
517.00	31949.87
518.00	31728.30
519.00	31463.82
520.00	31686.17
521.00	31732.20
522.00	31883.56
523.00	32144.92
524.00	32499.12
525.00	32849.42
526.00	32346.20
527.00	31963.92
528.00	31279.70
529.00	30896.63
530.00	30590.02
531.00	30654.00
532.00	30948.90
533.00	31329.63
534.00	31563.68
535.00	31888.24
536.00	31720.50
537.00	31547.30
538.00	31466.94
539.00	31639.36
540.00	32000.58
541.00	31962.36
542.00	32045.05
543.00	32027.11
544.00	32028.67
545.00	32016.97
546.00	31576.17
547.00	31371.76
548.00	30973.09
549.00	31164.23
550.00	31118.20
551.00	31353.04
552.00	31433.39
553.00	31558.22
554.00	31810.22
555.00	32208.89
556.00	32705.09
557.00	33259.79
558.00	33834.78
559.00	34226.43
560.00	34375.45
561.00	34124.23
562.00	33776.27
563.00	33290.22
564.00	32968.79
565.00	33117.80
566.00	33420.51
567.00	33589.03
568.00	33574.98
569.00	33393.20
570.00	33804.36
571.00	34259.98
572.00	34789.72
573.00	34849.02
574.00	34848.24
575.00	34784.26
576.00	35017.54
577.00	34992.57
578.00	35161.87
579.00	34917.67
580.00	34816.25
581.00	34675.04
582.00	34568.15
583.00	34543.97
584.00	34568.15
585.00	35049.52
586.00	35745.44
587.00	36090.28
588.00	36357.10
589.00	36716.76
590.00	37353.39
591.00	37842.56
592.00	37830.86
593.00	37878.45
594.00	37733.34
595.00	37684.19
596.00	37823.84
597.00	38105.48
598.00	38652.39
599.00	39168.08
600.00	39566.76
601.00	39800.03
602.00	39849.96
603.00	39894.43
604.00	40155.01
605.00	40550.56
606.00	40869.65
607.00	41003.85
608.00	41099.03
609.00	41341.66
610.00	41647.49
611.00	41731.75
612.00	42111.70
613.00	42388.66
614.00	42567.32
615.00	42403.49
616.00	42300.50
617.00	42376.96
618.00	42719.46
619.00	43050.25
620.00	43308.49
621.00	43401.33
622.00	43363.11
623.00	43743.83
624.00	43764.90
625.00	43779.72
626.00	43338.14
627.00	43390.41
628.00	43629.15
629.00	44120.66
630.00	44605.15
631.00	44586.43
632.00	43916.25
633.00	42860.67
634.00	41464.15
635.00	39803.93
636.00	38006.40
637.00	37228.56
638.00	37568.72
639.00	38729.62
640.00	39855.42
641.00	41056.12
642.00	41993.89
643.00	42932.45
644.00	43869.44
645.00	44651.18
646.00	45537.46
647.00	46021.95
648.00	46664.82
649.00	46902.78
650.00	46916.82
651.00	46547.79
652.00	46064.08
653.00	46032.88
654.00	46657.80
655.00	47767.99
656.00	48853.22
657.00	49616.24
658.00	50025.83
659.00	50295.77
660.00	50429.96
661.00	50514.22
662.00	50526.70
663.00	50354.29
664.00	50247.40
665.00	50044.55
666.00	50129.59
667.00	49886.96
668.00	49340.83
669.00	48633.99
670.00	48176.03
671.00	48277.45
672.00	48829.04
673.00	49769.93
674.00	50707.71
675.00	51501.93
676.00	51732.86
677.00	51548.74
678.00	51089.99
679.00	50899.63
680.00	51025.24
681.00	51421.57
682.00	52051.95
683.00	52704.96
684.00	53229.24
685.00	53583.44
686.00	53833.88
687.00	53834.66
688.00	53624.01
689.00	53233.14
690.00	52893.77
691.00	52725.25
692.00	52896.11
693.00	53325.99
694.00	53781.61
695.00	54042.97
696.00	54039.85
697.00	54071.06
698.00	54135.03
699.00	54241.92
700.00	54386.25
701.00	54504.84
702.00	54500.93
703.00	54174.82
704.00	53633.38
705.00	53198.04
706.00	53008.45
707.00	53194.14
708.00	53625.57
709.00	54124.89
710.00	54437.74
711.00	54675.69
712.00	54811.45
713.00	54885.56
714.00	54824.71
715.00	54411.21
716.00	53974.31
717.00	53524.93
718.00	53232.36
719.00	53148.10
720.00	53141.08
721.00	53169.95
722.00	53059.16
723.00	52961.64
724.00	52931.22
725.00	53020.94
726.00	53019.38
727.00	53355.63
728.00	53522.59
729.00	53950.13
730.00	54117.87
731.00	54470.51
732.00	54557.11
733.00	54656.97
734.00	54476.75
735.00	54195.10
736.00	53692.67
737.00	53314.28
738.00	53107.54
739.00	53247.97
740.00	53575.64
741.00	54222.41
742.00	54553.99
743.00	54720.16
744.00	54692.86
745.00	55061.88
746.00	55428.57
747.00	55888.87
748.00	56103.42
749.00	56327.33
750.00	56175.98
751.00	55879.51
752.00	55651.70
753.00	55429.35
754.00	55343.53
755.00	55258.49
756.00	55238.20
757.00	55105.57
758.00	54832.51
759.00	54573.49
760.00	54365.96
761.00	54326.17
762.00	54407.31
763.00	54688.96
764.00	54944.86
765.00	55305.30
766.00	55739.86
767.00	56197.82
768.00	56417.05
769.00	56343.72
770.00	56054.27
771.00	55728.94
772.00	55654.04
773.00	55636.87
774.00	55748.44
775.00	55629.85
776.00	55558.86
777.00	55589.28
778.00	55794.47
779.00	56104.98
780.00	56425.64
781.00	56723.66
782.00	56942.89
783.00	56881.26
784.00	56583.23
785.00	56161.93
786.00	55730.50
787.00	55521.41
788.00	55481.62
789.00	55675.10
790.00	55740.64
791.00	55735.96
792.00	55654.04
793.00	55506.58
794.00	55366.15
795.00	55051.74
796.00	55006.49
797.00	54943.30
798.00	55118.06
799.00	55249.91
800.00	55430.13
801.00	55611.13
802.00	55779.65
803.00	55828.02
804.00	55967.67
805.00	56114.34
806.00	56289.10
807.00	56027.74
808.00	55288.13
809.00	54032.05
810.00	52757.24
811.00	51444.19
812.00	50313.72
813.00	49648.22
814.00	50135.06
815.00	51485.54
816.00	53064.63
817.00	53787.07
818.00	53805.80
819.00	53186.33
820.00	52486.51
821.00	52264.16
822.00	52443.60
823.00	53113.78
824.00	53681.75
825.00	54287.95
826.00	54668.67
827.00	55113.37
828.00	55486.30
829.00	55793.69
830.00	55941.92
831.00	55926.32
832.00	55806.95
833.00	55543.25
834.00	55360.69
835.00	55363.81
836.00	55689.93
837.00	56026.18
838.00	56294.56
839.00	56349.96
840.00	56434.22
841.00	56528.62
842.00	56544.22
843.00	56394.43
844.00	56034.77
845.00	55564.32
846.00	55156.28
847.00	55024.43
848.00	55161.75
849.00	55513.61
850.00	55835.82
851.00	56324.99
852.00	56642.52
853.00	57017.79
854.00	57123.89
855.00	57265.89
856.00	57218.30
857.00	57079.42
858.00	56878.92
859.00	56697.14
860.00	56707.28
861.00	56700.26
862.00	56892.18
863.00	56891.40
864.00	56752.53
865.00	56104.98
866.00	55274.09
867.00	54254.40
868.00	53368.12
869.00	52727.59
870.00	52435.02
871.00	52647.23
872.00	53045.12
873.00	53793.31
874.00	54493.91
875.00	55201.53
876.00	55586.16
877.00	55737.52
878.00	55897.45
879.00	56163.50
880.00	56589.47
881.00	56959.28
882.00	57170.71
883.00	57254.96
884.00	57074.74
885.00	56735.37
886.00	56345.28
887.00	56023.06
888.00	55969.23
889.00	56011.36
890.00	56224.35
891.00	56495.07
892.00	56752.53
893.00	56932.75
894.00	57006.87
895.00	57025.59
896.00	57034.95
897.00	56904.66
898.00	56680.75
899.00	56456.06
900.00	56109.66
901.00	55705.53
902.00	55201.53
903.00	54692.08
904.00	54316.03
905.00	54128.79
906.00	54327.73
907.00	54780.24
908.00	55228.06
909.00	55764.82
910.00	55921.64
911.00	55879.51
912.00	55517.51
913.00	55353.67
914.00	55275.65
915.00	55384.88
916.00	55457.43
917.00	55742.20
918.00	55987.17
919.00	56192.36
920.00	56395.21
921.00	56619.90
922.00	56819.63
923.00	56758.77
924.00	56493.51
925.00	56145.55
926.00	55644.68
927.00	55130.54
928.00	54695.20
929.00	54522.78
930.00	54513.42
931.00	54743.57
932.00	55092.31
933.00	55521.41
934.00	55604.89
935.00	55634.53
936.00	55489.42
937.00	55559.64
938.00	55528.43
939.00	55532.33
940.00	55395.02
941.00	55169.55
942.00	54955.00
943.00	54718.60
944.00	54532.14
945.00	54299.65
946.00	54167.02
947.00	53929.84
948.00	53796.43
949.00	53439.89
950.00	53328.33
951.00	53177.75
952.00	53179.31
953.00	53123.14
954.00	53290.10
955.00	53611.53
956.00	54036.73
957.00	54165.46
958.00	54451.78
959.00	54525.90
960.00	54570.37
961.00	54267.66
962.00	54219.29
963.00	54138.15
964.00	54309.01
965.00	54148.29
966.00	54284.04
967.00	54284.04
968.00	54514.98
969.00	54674.91
970.00	55019.75
971.00	55289.70
972.00	55319.34
973.00	55065.78
974.00	54866.84
975.00	54852.01
976.00	54860.60
977.00	54829.39
978.00	54656.19
979.00	54580.51
980.00	54405.75
981.00	54571.93
982.00	54448.66
983.00	54501.71
984.00	54330.86
985.00	54285.61
986.00	54211.49
987.00	54164.68
988.00	54309.79
989.00	54184.96
990.00	54141.27
991.00	53850.27
992.00	53553.02
993.00	53178.53
994.00	53131.72
995.00	53457.84
996.00	53666.92
997.00	54074.18
998.00	54156.88
999.00	54323.83
1000.00	54312.13
1001.00	54398.73
1002.00	54344.12
1003.00	54138.93
1004.00	54205.25
1005.00	54216.17
1006.00	54288.73
1007.00	54044.53
1008.00	54022.68
1009.00	53773.81
1010.00	53714.51
1011.00	53612.31
1012.00	53668.48
1013.00	53492.94
1014.00	53406.34
1015.00	53425.07
1016.00	53672.38
1017.00	53917.36
1018.00	54117.09
1019.00	54202.13
1020.00	54032.83
1021.00	53779.27
1022.00	53467.98
1023.00	53205.84
1024.00	53038.10
1025.00	53042.78
1026.00	53242.51
1027.00	53301.02
1028.00	53405.56
1029.00	53375.92
1030.00	53541.31
1031.00	53765.23
1032.00	53986.02
1033.00	54050.77
1034.00	53931.40
1035.00	53918.92
1036.00	53969.63
1037.00	53902.54
1038.00	53874.45
1039.00	53641.18
1040.00	53569.40
1041.00	53304.92
1042.00	53128.60
1043.00	52994.41
1044.00	52953.84
1045.00	52927.31
1046.00	52769.72
1047.00	52631.63
1048.00	52482.61
1049.00	52308.63
1050.00	52312.53
1051.00	52313.31
1052.00	52499.00
1053.00	52532.54
1054.00	52645.67
1055.00	52579.35
1056.00	52489.63
1057.00	52161.96
1058.00	51691.51
1059.00	51126.66
1060.00	50838.78
1061.00	50780.26
1062.00	50830.19
1063.00	50912.11
1064.00	50996.37
1065.00	51095.45
1066.00	51180.49
1067.00	51181.27
1068.00	51258.51
1069.00	51522.21
1070.00	51845.21
1071.00	52264.16
1072.00	52492.75
1073.00	52605.88
1074.00	52384.31
1075.00	51864.71
1076.00	51529.23
1077.00	51212.48
1078.00	51144.61
1079.00	51026.02
1080.00	51109.50
1081.00	51171.91
1082.00	51278.02
1083.00	51388.80
1084.00	51604.13
1085.00	51739.10
1086.00	51799.18
1087.00	51760.95
1088.00	51583.85
1089.00	51381.00
1090.00	51106.38
1091.00	51128.22
1092.00	50974.53
1093.00	50979.21
1094.00	50955.80
1095.00	51157.87
1096.00	51150.07
1097.00	50986.23
1098.00	50746.72
1099.00	50641.39
1100.00	50343.36
1101.00	49907.24
1102.00	49318.99
1103.00	49220.69
1104.00	49155.93
1105.00	49458.64
1106.00	49585.81
1107.00	50001.64
1108.00	50157.68
1109.00	50323.86
1110.00	50535.29
1111.00	50531.39
1112.00	50716.29
1113.00	50578.20
1114.00	50490.82
1115.00	50157.68
1116.00	49667.73
1117.00	49373.60
1118.00	48943.72
1119.00	48675.34
1120.00	48453.77
1121.00	48476.40
1122.00	48633.99
1123.00	48772.08
1124.00	48855.56
1125.00	48919.54
1126.00	48785.35
1127.00	48640.23
1128.00	48319.58
1129.00	48143.26
1130.00	47771.89
1131.00	47516.78
1132.00	47276.48
1133.00	47011.22
1134.00	46806.81
1135.00	46641.42
1136.00	46902.00
1137.00	47253.08
1138.00	47607.28
1139.00	47853.81
1140.00	48080.06
1141.00	48302.42
1142.00	48391.36
1143.00	48357.03
1144.00	48205.67
1145.00	48058.22
1146.00	48083.97
1147.00	48145.60
1148.00	48166.66
1149.00	47996.59
1150.00	47966.16
1151.00	47960.70
1152.00	48110.49
1153.00	47983.32
1154.00	47706.36
1155.00	47239.81
1156.00	47049.45
1157.00	46814.62
1158.00	46616.45
1159.00	46294.24
1160.00	46224.02
1161.00	46234.16
1162.00	46256.79
1163.00	46163.95
1164.00	46055.50
1165.00	46013.37
1166.00	45926.77
1167.00	46066.42
1168.00	46309.84
1169.00	46555.60
1170.00	46452.61
1171.00	46414.38
1172.00	46241.96
1173.00	46155.36
1174.00	45835.49
1175.00	45783.22
1176.00	45528.10
1177.00	45244.90
1178.00	44806.44
1179.00	44548.20
1180.00	44421.03
1181.00	44569.26
1182.00	44724.52
1183.00	44925.80
1184.00	44946.87
1185.00	45152.83
1186.00	45315.89
1187.00	45582.71
1188.00	45636.55
1189.00	45762.93
1190.00	45749.67
1191.00	45906.49
1192.00	45596.76
1193.00	45436.82
1194.00	45161.42
1195.00	45373.63
1196.00	45548.39
1197.00	45806.62
1198.00	45663.07
1199.00	45775.42
1200.00	45675.55
1201.00	45941.60
1202.00	45890.10
1203.00	46115.58
1204.00	46129.62
1205.00	46209.20
1206.00	46118.70
1207.00	46224.02
1208.00	46188.91
1209.00	46217.00
1210.00	46097.63
1211.00	45972.80
1212.00	45964.22
1213.00	46015.71
1214.00	45911.95
1215.00	45885.42
1216.00	45469.59
1217.00	45474.27
1218.00	45312.77
1219.00	45499.23
1220.00	45457.10
1221.00	45098.22
1222.00	44817.36
1223.00	44452.23
1224.00	44359.39
1225.00	43931.08
1226.00	43691.56
1227.00	43430.98
1228.00	43537.87
1229.00	43693.90
1230.00	43768.02
1231.00	43943.56
1232.00	44012.99
1233.00	44205.70
1234.00	44009.87
1235.00	43980.23
1236.00	44002.07
1237.00	44049.66
1238.00	43817.95
1239.00	43475.45
1240.00	43296.79
1241.00	42946.49
1242.00	42464.34
1243.00	41400.96
1244.00	40241.61
1245.00	38934.03
1246.00	38033.71
1247.00	37569.50
1248.00	37258.99
1249.00	37313.60
1250.00	37546.87
1251.00	38271.66
1252.00	39206.31
1253.00	40070.75
1254.00	40724.54
1255.00	41285.49
1256.00	41860.48
1257.00	42278.66
1258.00	42366.82
1259.00	41883.89
1260.00	41640.47
1261.00	41375.99
1262.00	41416.56
1263.00	41366.63
1264.00	41288.61
1265.00	41154.42
1266.00	41071.72
1267.00	41136.48
1268.00	41340.10
1269.00	41408.76
1270.00	41354.15
1271.00	41184.07
1272.00	41329.96
1273.00	41481.31
1274.00	41706.01
1275.00	41574.94
1276.00	41419.68
1277.00	41116.19
1278.00	40790.86
1279.00	40463.96
1280.00	40202.60
1281.00	40028.62
1282.00	39916.28
1283.00	39913.94
1284.00	39874.93
1285.00	40006.78
1286.00	40173.74
1287.00	40509.21
1288.00	40569.29
1289.00	40807.24
1290.00	40883.70
1291.00	40949.23
1292.00	40940.65
1293.00	40864.19
1294.00	40889.94
1295.00	40776.81
1296.00	40769.79
1297.00	40649.64
1298.00	40623.12
1299.00	40542.76
1300.00	40474.10
1301.00	40375.80
1302.00	40249.41
1303.00	40167.49
1304.00	40114.44
1305.00	40145.65
1306.00	40134.73
1307.00	40006.00
1308.00	39968.55
1309.00	40003.66
1310.00	40038.76
1311.00	40054.37
1312.00	40016.14
1313.00	40121.46
1314.00	40030.18
1315.00	40012.24
1316.00	39855.42
1317.00	39755.56
1318.00	39569.10
1319.00	39449.73
1320.00	39395.12
1321.00	39597.96
1322.00	39778.18
1323.00	39668.96
1324.00	39301.50
1325.00	38923.11
1326.00	38763.95
1327.00	38586.07
1328.00	38582.17
1329.00	38514.30
1330.00	38836.51
1331.00	38956.66
1332.00	39075.24
1333.00	38995.67
1334.00	39142.34
1335.00	39307.74
1336.00	39528.53
1337.00	39643.99
1338.00	39768.82
1339.00	39825.78
1340.00	39722.79
1341.00	39677.54
1342.00	39541.79
1343.00	39402.92
1344.00	39308.52
1345.00	39337.38
1346.00	39423.20
1347.00	39367.81
1348.00	39056.52
1349.00	38959.78
1350.00	38871.62
1351.00	38885.66
1352.00	38795.94
1353.00	38845.87
1354.00	38848.21
1355.00	38717.14
1356.00	38528.34
1357.00	38459.68
1358.00	38424.57
1359.00	38474.51
1360.00	38556.42
1361.00	38609.48
1362.00	38523.66
1363.00	38385.57
1364.00	38100.80
1365.00	37940.86
1366.00	37652.20
1367.00	37744.26
1368.00	37700.57
1369.00	37706.81
1370.00	37538.29
1371.00	37422.05
1372.00	37417.36
1373.00	37267.57
1374.00	37184.87
1375.00	37051.46
1376.00	37006.21
1377.00	36993.73
1378.00	37010.11
1379.00	36955.50
1380.00	36733.93
1381.00	36531.08
1382.00	36301.71
1383.00	36407.03
1384.00	36331.36
1385.00	36496.75
1386.00	36347.74
1387.00	36510.80
1388.00	36699.60
1389.00	36756.55
1390.00	36684.00
1391.00	36404.69
1392.00	36436.68
1393.00	36155.04
1394.00	35939.71
1395.00	35660.40
1396.00	35726.72
1397.00	35839.06
1398.00	35910.84
1399.00	35986.52
1400.00	36003.68
1401.00	35767.29
1402.00	35434.93
1403.00	35065.13
1404.00	34799.08
1405.00	34732.77
1406.00	34731.21
1407.00	34921.57
1408.00	34990.23
1409.00	35290.60
1410.00	35402.94
1411.00	35463.02
1412.00	35279.67
1413.00	35148.60
1414.00	35104.13
1415.00	34954.34
1416.00	34891.93
1417.00	34444.10
1418.00	34007.98
1419.00	33472.00
1420.00	33340.15
1421.00	33251.99
1422.00	33406.47
1423.00	33378.38
1424.00	33499.31
1425.00	33424.41
1426.00	33489.95
1427.00	33526.61
1428.00	33684.21
1429.00	33852.73
1430.00	34160.12
1431.00	34273.24
1432.00	34492.47
1433.00	34334.88
1434.00	34454.25
1435.00	34328.64
1436.00	34176.50
1437.00	33787.97
1438.00	33543.78
1439.00	33427.53
1440.00	33518.81
1441.00	33627.26
1442.00	33771.59
1443.00	33859.75
1444.00	33819.18
1445.00	33908.12
1446.00	33930.75
1447.00	33889.40
1448.00	33833.22
1449.00	33783.29
1450.00	33862.87
1451.00	33851.17
1452.00	33759.11
1453.00	33596.05
1454.00	33308.94
1455.00	32938.36
1456.00	32685.58
1457.00	32580.26
1458.00	32616.93
1459.00	32602.88
1460.00	32682.46
1461.00	32708.99
1462.00	32559.19
1463.00	32134.00
1464.00	31931.93
1465.00	31793.84
1466.00	31807.10
1467.00	31626.88
1468.00	31710.36
1469.00	31693.19
1470.00	31697.88
1471.00	31590.21
1472.00	31540.28
1473.00	31526.24
1474.00	31409.21
1475.00	31342.11
1476.00	31157.99
1477.00	31020.68
1478.00	30865.42
1479.00	30739.82
1480.00	30654.78
1481.00	30508.88
1482.00	30508.10
1483.00	30452.71
1484.00	30632.93
1485.00	30629.81
1486.00	30775.70
1487.00	30720.31
1488.00	30728.89
1489.00	30644.63
1490.00	30668.04
1491.00	30692.22
1492.00	30639.17
1493.00	30192.13
1494.00	29599.98
1495.00	28858.81
1496.00	28354.03
1497.00	27933.51
1498.00	27786.06
1499.00	27944.44
1500.00	28306.44
1501.00	28684.05
1502.00	28913.42
1503.00	28907.96
1504.00	28787.81
1505.00	28755.82
1506.00	28778.45
1507.00	28749.58
1508.00	28418.78
1509.00	28294.74
1510.00	28164.45
1511.00	28224.52
1512.00	28077.07
1513.00	28164.45
1514.00	28270.55
1515.00	28503.82
1516.00	28606.03
1517.00	28716.03
1518.00	28744.12
1519.00	28763.62
1520.00	28565.46
1521.00	28192.53
1522.00	27781.38
1523.00	27609.74
1524.00	27718.96
1525.00	27936.63
1526.00	28176.93
1527.00	28360.27
1528.00	28581.84
1529.00	28791.71
1530.00	28921.22
1531.00	28787.03
1532.00	28656.74
1533.00	28523.33
1534.00	28409.42
1535.00	28116.08
1536.00	28063.80
1537.00	27943.66
1538.00	28018.55
1539.00	27999.05
1540.00	28085.65
1541.00	28158.99
1542.00	28180.83
1543.00	28287.71
1544.00	28398.50
1545.00	28504.60
1546.00	28446.87
1547.00	28302.54
1548.00	28038.84
1549.00	28006.07
1550.00	27775.14
1551.00	27670.59
1552.00	27445.12
1553.00	27482.57
1554.00	27548.89
1555.00	27775.92
1556.00	27976.42
1557.00	28112.95
1558.00	28199.55
1559.00	28130.12
1560.00	28058.34
1561.00	27985.01
1562.00	28117.64
1563.00	28163.67
1564.00	28185.51
1565.00	28098.91
1566.00	28059.12
1567.00	28052.10
1568.00	27990.47
1569.00	27931.17
1570.00	27875.00
1571.00	27809.47
1572.00	27785.28
1573.00	27676.05
1574.00	27537.96
1575.00	27281.28
1576.00	27034.75
1577.00	26836.58
1578.00	26828.78
1579.00	26877.93
1580.00	26999.64
1581.00	26960.63
1582.00	26829.56
1583.00	26657.92
1584.00	26604.09
1585.00	26565.08
1586.00	26468.34
1587.00	26309.96
1588.00	26307.62
1589.00	26420.75
1590.00	26517.49
1591.00	26381.74
1592.00	26184.35
1593.00	26237.41
1594.00	26375.50
1595.00	26493.30
1596.00	26403.58
1597.00	26339.61
1598.00	26384.08
1599.00	26359.89
1600.00	26263.15
1601.00	26099.31
1602.00	26018.96
1603.00	25908.17
1604.00	25811.43
1605.00	25774.76
1606.00	25866.82
1607.00	25806.75
1608.00	25784.90
1609.00	25779.44
1610.00	25875.40
1611.00	25866.82
1612.00	25717.03
1613.00	25636.67
1614.00	25507.94
1615.00	25444.74
1616.00	25309.77
1617.00	25301.97
1618.00	25208.35
1619.00	25075.72
1620.00	24840.89
1621.00	24764.43
1622.00	24793.29
1623.00	24720.74
1624.00	24682.51
1625.00	24630.24
1626.00	24730.10
1627.00	24623.22
1628.00	24460.94
1629.00	24330.65
1630.00	24322.85
1631.00	24360.30
1632.00	24191.00
1633.00	24146.53
1634.00	23956.16
1635.00	24008.44
1636.00	23949.14
1637.00	24144.19
1638.00	23992.83
1639.00	23895.31
1640.00	23459.97
1641.00	23275.07
1642.00	23054.28
1643.00	22963.78
1644.00	22795.26
1645.00	22787.46
1646.00	23117.47
1647.00	23513.02
1648.00	23920.27
1649.00	24072.41
1650.00	24294.76
1651.00	24342.35
1652.00	24328.31
1653.00	24190.22
1654.00	23926.52
1655.00	23887.51
1656.00	23544.23
1657.00	23341.38
1658.00	23048.82
1659.00	23215.77
1660.00	23354.65
1661.00	23483.38
1662.00	23522.38
1663.00	23492.74
1664.00	23502.88
1665.00	23605.08
1666.00	23602.74
1667.00	23589.48
1668.00	23439.68
1669.00	23485.72
1670.00	23517.70
1671.00	23584.02
1672.00	23581.68
1673.00	23537.21
1674.00	23378.83
1675.00	23320.32
1676.00	23081.58
1677.00	22924.77
1678.00	22701.64
1679.00	22558.86
1680.00	22495.67
1681.00	22375.52
1682.00	22287.36
1683.00	22066.57
1684.00	21729.53
1685.00	21309.02
1686.00	20641.18
1687.00	19945.27
1688.00	18991.11
1689.00	18315.47
1690.00	18001.06
1691.00	18125.89
1692.00	18569.03
1693.00	19073.81
1694.00	19788.45
1695.00	20404.79
1696.00	20961.84
1697.00	21337.10
1698.00	21518.11
1699.00	21623.43
1700.00	21711.59
1701.00	21946.42
1702.00	22178.14
1703.00	22316.23
1704.00	22323.25
1705.00	22274.10
1706.00	22260.06
1707.00	22099.34
1708.00	22033.80
1709.00	22013.52
1710.00	22018.20
1711.00	21978.41
1712.00	21897.27
1713.00	21854.36
1714.00	21769.32
1715.00	21722.51
1716.00	21849.68
1717.00	21925.36
1718.00	21948.76
1719.00	21834.08
1720.00	21760.74
1721.00	21655.42
1722.00	21726.41
1723.00	21799.75
1724.00	21957.35
1725.00	21867.63
1726.00	21814.57
1727.00	21748.26
1728.00	21797.41
1729.00	21755.28
1730.00	21825.50
1731.00	21872.31
1732.00	21823.94
1733.00	21614.07
1734.00	21410.44
1735.00	21276.25
1736.00	21276.25
1737.00	21173.27
1738.00	21099.15
1739.00	20937.65
1740.00	20955.60
1741.00	20979.78
1742.00	20957.94
1743.00	20851.83
1744.00	20766.01
1745.00	20663.81
1746.00	20695.80
1747.00	20618.56
1748.00	20687.22
1749.00	20643.52
1750.00	20651.33
1751.00	20596.71
1752.00	20637.28
1753.00	20725.44
1754.00	20705.94
1755.00	20602.96
1756.00	20450.82
1757.00	20340.82
1758.00	20120.81
1759.00	20006.90
1760.00	19921.08
1761.00	19990.52
1762.00	19992.08
1763.00	20006.12
1764.00	20002.22
1765.00	20029.52
1766.00	20070.87
1767.00	19909.38
1768.00	19787.67
1769.00	19654.26
1770.00	19650.36
1771.00	19633.97
1772.00	19528.65
1773.00	19577.80
1774.00	19652.70
1775.00	19737.74
1776.00	19802.49
1777.00	19630.07
1778.00	19655.04
1779.00	19420.99
1780.00	19470.92
1781.00	19310.20
1782.00	19304.74
1783.00	19200.19
1784.00	19078.49
1785.00	18984.87
1786.00	18934.93
1787.00	18966.14
1788.00	19003.59
1789.00	18969.26
1790.00	18899.05
1791.00	18757.83
1792.00	18727.41
1793.00	18682.94
1794.00	18634.57
1795.00	18532.36
1796.00	18410.65
1797.00	18398.17
1798.00	18203.13
1799.00	18168.02
1800.00	17993.26
1801.00	18023.69
1802.00	17990.14
1803.00	17986.24
1804.00	17976.87
1805.00	18019.78
1806.00	18059.57
1807.00	18097.02
1808.00	17951.13
1809.00	17946.45
1810.00	17832.54
1811.00	17878.57
1812.00	17783.39
1813.00	17694.45
1814.00	17578.20
1815.00	17549.34
1816.00	17525.93
1817.00	17449.47
1818.00	17343.37
1819.00	17351.17
1820.00	17319.18
1821.00	17273.93
1822.00	17216.20
1823.00	17187.33
1824.00	17216.98
1825.00	17133.50
1826.00	17161.59
1827.00	17086.69
1828.00	17064.85
1829.00	17018.04
1830.00	16869.02
1831.00	16826.89
1832.00	16798.02
1833.00	16886.18
1834.00	16836.25
1835.00	16667.74
1836.00	16473.47
1837.00	16350.98
1838.00	16325.24
1839.00	16382.97
1840.00	16379.85
1841.00	16373.61
1842.00	16391.55
1843.00	16335.38
1844.00	16205.87
1845.00	16063.88
1846.00	15991.32
1847.00	15914.86
1848.00	15849.33
1849.00	15786.91
1850.00	15752.59
1851.00	15720.60
1852.00	15740.10
1853.00	15662.86
1854.00	15566.12
1855.00	15477.96
1856.00	15438.17
1857.00	15384.34
1858.00	15318.81
1859.00	15286.04
1860.00	15220.50
1861.00	15091.77
1862.00	15045.74
1863.00	15090.21
1864.00	15026.24
1865.00	14920.14
1866.00	14793.75
1867.00	14857.72
1868.00	14929.50
1869.00	14921.70
1870.00	14863.96
1871.00	14859.28
1872.00	14793.75
1873.00	14777.36
1874.00	14632.25
1875.00	14582.32
1876.00	14480.11
1877.00	14382.59
1878.00	14299.11
1879.00	14211.73
1880.00	14167.26
1881.00	14154.00
1882.00	14176.62
1883.00	14202.37
1884.00	14079.10
1885.00	13960.52
1886.00	13745.97
1887.00	13613.34
1888.00	13505.67
1889.00	13442.48
1890.00	13504.89
1891.00	13484.61
1892.00	13517.37
1893.00	13411.27
1894.00	13434.68
1895.00	13376.16
1896.00	13380.06
1897.00	13309.07
1898.00	13200.62
1899.00	13174.88
1900.00	13102.32
1901.00	13097.64
1902.00	12971.25
1903.00	12705.21
1904.00	12342.42
1905.00	11679.27
1906.00	10833.56
1907.00	9922.31
1908.00	9133.55
1909.00	8591.33
1910.00	8207.48
1911.00	7996.83
1912.00	8017.12
1913.00	8269.89
1914.00	8642.04
1915.00	9080.50
1916.00	9427.68
1917.00	9813.09
1918.00	10011.25
1919.00	10107.21
1920.00	10043.24
1921.00	9912.17
1922.00	9766.28
1923.00	9638.33
1924.00	9525.98
1925.00	9447.18
1926.00	9366.82
1927.00	9392.57
1928.00	9482.29
1929.00	9537.68
1930.00	9638.33
1931.00	9642.23
1932.00	9721.02
1933.00	9731.17
1934.00	9793.58
1935.00	9955.08
1936.00	10059.62
1937.00	10159.49
1938.00	10144.66
1939.00	10162.61
1940.00	10145.44
1941.00	10120.48
1942.00	10107.99
1943.00	10221.12
1944.00	10246.87
1945.00	10195.37
1946.00	10136.86
1947.00	10139.98
1948.00	10215.66
1949.00	10102.53
1950.00	10039.34
1951.00	9912.95
1952.00	9913.73
1953.00	9905.93
1954.00	9882.52
1955.00	9757.69
1956.00	9607.12
1957.00	9542.36
1958.00	9583.71
1959.00	9605.56
1960.00	9498.67
1961.00	9325.47
1962.00	9234.19
1963.00	9195.18
1964.00	9250.58
1965.00	9277.88
1966.00	9327.82
1967.00	9223.27
1968.00	9171.00
1969.00	9121.85
1970.00	9162.42
1971.00	9018.08
1972.00	8975.17
1973.00	8888.57
1974.00	8954.11
1975.00	9011.84
1976.00	9104.68
1977.00	9139.01
1978.00	9141.35
1979.00	9113.27
1980.00	9191.28
1981.00	9156.96
1982.00	9226.39
1983.00	9114.83
1984.00	9063.33
1985.00	8965.03
1986.00	8950.99
1987.00	8958.01
1988.00	8803.53
1989.00	8684.17
1990.00	8549.98
1991.00	8564.02
1992.00	8534.37
1993.00	8483.66
1994.00	8428.27
1995.00	8386.92
1996.00	8235.56
1997.00	8098.25
1998.00	8054.56
1999.00	7997.61
2000.00	7964.84
2001.00	7907.11
2002.00	7999.95
2003.00	8062.37
2004.00	8024.92
2005.00	7943.78
2006.00	7867.32
2007.00	7783.06
2008.00	7728.45
2009.00	7634.05
2010.00	7588.02
2011.00	7612.98
2012.00	7632.49
2013.00	7713.63
2014.00	7588.80
2015.00	7485.03
2016.00	7326.66
2017.00	7321.20
2018.00	7343.04
2019.00	7321.98
2020.00	7273.60
2021.00	7197.93
2022.00	7155.02
2023.00	7124.59
2024.00	7141.75
2025.00	7173.74
2026.00	7210.41
2027.00	7153.46
2028.00	7145.66
2029.00	7158.92
2030.00	7198.71
2031.00	7117.57
2032.00	7051.25
2033.00	7041.11
2034.00	6998.98
2035.00	6970.12
2036.00	6959.19
2037.00	7020.83
2038.00	6999.76
2039.00	6932.67
2040.00	6916.28
2041.00	6928.77
2042.00	6919.40
2043.00	6815.64
2044.00	6732.16
2045.00	6693.15
2046.00	6700.17
2047.00	6684.57
>>>>>End Processed Spectral Data<<<<<
