SpectraSuite Data File
++++++++++++++++++++++++++++++++++++
Date: Thu Nov 16 13:32:53 EST 2017
User: cheriyan
Dark Spectrum Present: No
Reference Spectrum Present: No
Number of Sampled Component Spectra: 1
Spectrometers: USB2+H05261
Integration Time (usec): 90000 (USB2+H05261)
Spectra Averaged: 1 (USB2+H05261)
Boxcar Smoothing: 1 (USB2+H05261)
Correct for Electrical Dark: No (USB2+H05261)
Strobe/Lamp Enabled: No (USB2+H05261)
Correct for Detector Non-linearity: No (USB2+H05261)
Correct for Stray Light: No (USB2+H05261)
Number of Pixels in Processed Spectrum: 2048
>>>>>Begin Processed Spectral Data<<<<<
0.00	304.27
1.00	304.27
2.00	294.13
3.00	280.86
4.00	274.62
5.00	270.72
6.00	262.14
7.00	243.42
8.00	238.73
9.00	243.42
10.00	257.46
11.00	257.46
12.00	269.94
13.00	261.36
14.00	263.70
15.00	230.93
16.00	240.30
17.00	252.78
18.00	286.33
19.00	289.45
20.00	312.07
21.00	329.24
22.00	360.44
23.00	791.88
24.00	2376.42
25.00	4152.11
26.00	5522.10
27.00	5640.69
28.00	5500.26
29.00	5257.62
30.00	5103.93
31.00	5050.88
32.00	5133.58
33.00	5230.32
34.00	5206.91
35.00	5031.37
36.00	4785.62
37.00	4605.39
38.00	4567.95
39.00	4657.67
40.00	4813.70
41.00	4904.98
42.00	4876.90
43.00	4836.33
44.00	4870.65
45.00	5065.70
46.00	5322.38
47.00	5669.56
48.00	5878.65
49.00	5895.03
50.00	5778.78
51.00	5732.75
52.00	5778.00
53.00	5790.49
54.00	5895.81
55.00	6074.47
56.00	6405.27
57.00	6709.54
58.00	6953.73
59.00	7165.16
60.00	7296.23
61.00	7394.53
62.00	7261.12
63.00	6990.40
64.00	6673.65
65.00	6331.15
66.00	6127.52
67.00	5950.42
68.00	5932.48
69.00	5877.09
70.00	6045.60
71.00	6269.52
72.00	6619.04
73.00	6821.88
74.00	6962.31
75.00	6963.09
76.00	6832.80
77.00	6548.04
78.00	6162.63
79.00	5825.59
80.00	5541.61
81.00	5313.80
82.00	5095.35
83.00	4929.17
84.00	4768.45
85.00	4588.23
86.00	4495.39
87.00	4411.13
88.00	4448.58
89.00	4521.13
90.00	4786.40
91.00	5156.20
92.00	5625.87
93.00	6044.04
94.00	6416.19
95.00	6571.44
96.00	6591.73
97.00	6497.33
98.00	6343.63
99.00	6219.58
100.00	6124.40
101.00	6229.73
102.00	6379.52
103.00	6587.05
104.00	6592.51
105.00	6612.01
106.00	6480.94
107.00	6527.75
108.00	6515.27
109.00	6611.23
110.00	6580.03
111.00	6611.23
112.00	6562.08
113.00	6599.53
114.00	6582.37
115.00	6718.12
116.00	7022.39
117.00	7453.05
118.00	7882.92
119.00	8224.64
120.00	8427.49
121.00	8498.49
122.00	8389.26
123.00	8431.39
124.00	8521.11
125.00	8763.75
126.00	8996.24
127.00	9273.98
128.00	9461.23
129.00	9472.15
130.00	9375.41
131.00	9024.33
132.00	8648.28
133.00	8162.23
134.00	7673.06
135.00	7017.71
136.00	6226.61
137.00	5456.57
138.00	4817.60
139.00	4578.87
140.00	4768.45
141.00	5388.69
142.00	6168.87
143.00	6944.37
144.00	7662.91
145.00	8336.21
146.00	9001.70
147.00	9529.10
148.00	9785.00
149.00	9961.32
150.00	9922.31
151.00	9725.71
152.00	9214.69
153.00	8450.89
154.00	7624.69
155.00	6747.76
156.00	6093.97
157.00	5778.00
158.00	6069.01
159.00	6794.58
160.00	7884.48
161.00	9011.84
162.00	10225.02
163.00	11091.02
164.00	11793.96
165.00	12258.17
166.00	12674.00
167.00	12991.53
168.00	13247.43
169.00	13422.97
170.00	13548.58
171.00	13620.36
172.00	13770.15
173.00	13866.11
174.00	13967.54
175.00	14061.94
176.00	14167.26
177.00	14371.67
178.00	14601.04
179.00	14885.03
180.00	14951.34
181.00	15184.62
182.00	15296.96
183.00	15481.08
184.00	15499.03
185.00	15496.69
186.00	15427.25
187.00	15339.09
188.00	15236.89
189.00	15055.11
190.00	14926.38
191.00	14910.77
192.00	15212.70
193.00	15454.56
194.00	15634.78
195.00	15395.26
196.00	15093.33
197.00	14871.76
198.00	15012.98
199.00	15204.12
200.00	15422.57
201.00	15434.27
202.00	15316.47
203.00	15176.81
204.00	15047.30
205.00	14969.29
206.00	14783.60
207.00	14839.78
208.00	15030.92
209.00	15250.93
210.00	15368.74
211.00	15303.98
212.00	15300.86
213.00	15417.89
214.00	15724.50
215.00	16079.48
216.00	16395.45
217.00	16709.86
218.00	17033.64
219.00	17279.40
220.00	17393.30
221.00	17286.42
222.00	16920.51
223.00	16347.08
224.00	15713.58
225.00	15128.44
226.00	14891.27
227.00	15037.16
228.00	15510.73
229.00	16076.36
230.00	16695.04
231.00	17330.11
232.00	17946.45
233.00	18268.66
234.00	18345.90
235.00	18349.02
236.00	18438.74
237.00	18577.61
238.00	18549.53
239.00	18349.02
240.00	18145.39
241.00	18009.64
242.00	18046.31
243.00	18173.48
244.00	18419.24
245.00	18633.00
246.00	18889.68
247.00	18957.56
248.00	18986.43
249.00	18880.32
250.00	19007.49
251.00	19073.03
252.00	19197.85
253.00	19051.96
254.00	19145.58
255.00	19173.67
256.00	19541.91
257.00	19922.64
258.00	20330.67
259.00	20481.25
260.00	20370.46
261.00	20149.67
262.00	19802.49
263.00	19484.96
264.00	19263.39
265.00	19281.33
266.00	19423.33
267.00	19610.57
268.00	19619.93
269.00	19607.45
270.00	19580.14
271.00	19710.43
272.00	20071.65
273.00	20276.84
274.00	20241.73
275.00	20036.55
276.00	19861.01
277.00	19669.08
278.00	19544.25
279.00	19751.00
280.00	20355.64
281.00	20956.38
282.00	21416.68
283.00	21715.49
284.00	21777.12
285.00	21784.93
286.00	21706.13
287.00	21473.64
288.00	21222.42
289.00	20670.05
290.00	20151.23
291.00	19543.47
292.00	19298.50
293.00	19546.59
294.00	19987.39
295.00	20453.16
296.00	20559.27
297.00	20453.16
298.00	20404.79
299.00	20465.64
300.00	20684.09
301.00	20471.89
302.00	20379.82
303.00	20257.34
304.00	20325.21
305.00	20255.78
306.00	20070.87
307.00	19999.10
308.00	19843.06
309.00	19829.80
310.00	19975.69
311.00	20177.76
312.00	20201.94
313.00	20064.63
314.00	19620.71
315.00	19174.45
316.00	18815.57
317.00	18845.21
318.00	19137.78
319.00	19441.27
320.00	19826.68
321.00	19932.00
322.00	19826.68
323.00	19545.81
324.00	19344.53
325.00	19196.29
326.00	19019.19
327.00	18792.16
328.00	18200.01
329.00	17492.38
330.00	16669.30
331.00	15966.35
332.00	15307.88
333.00	14732.11
334.00	14510.54
335.00	14700.12
336.00	15403.85
337.00	16586.60
338.00	18316.25
339.00	20191.80
340.00	21687.40
341.00	22285.02
342.00	21933.16
343.00	21275.47
344.00	20620.12
345.00	20716.86
346.00	21383.13
347.00	22125.86
348.00	22574.47
349.00	22274.10
350.00	21498.60
351.00	20443.80
352.00	19715.11
353.00	19772.85
354.00	20192.58
355.00	20939.21
356.00	21537.61
357.00	22175.80
358.00	22339.63
359.00	22500.35
360.00	22643.90
361.00	23174.42
362.00	23518.48
363.00	23846.94
364.00	23949.92
365.00	24092.69
366.00	24026.38
367.00	23974.11
368.00	23746.30
369.00	23420.96
370.00	23229.82
371.00	22931.79
372.00	22799.94
373.00	22269.42
374.00	21678.04
375.00	21164.68
376.00	20922.05
377.00	21127.24
378.00	21576.62
379.00	22092.32
380.00	22711.78
381.00	23235.28
382.00	23900.77
383.00	24185.54
384.00	24188.66
385.00	23795.45
386.00	23555.15
387.00	23734.59
388.00	24127.02
389.00	24884.58
390.00	25260.62
391.00	25615.60
392.00	25816.11
393.00	26231.16
394.00	26728.92
395.00	27032.41
396.00	27176.74
397.00	27339.80
398.00	27588.67
399.00	27825.85
400.00	27764.21
401.00	27634.71
402.00	27571.51
403.00	27672.15
404.00	27966.28
405.00	28077.85
406.00	28317.36
407.00	28105.93
408.00	27824.29
409.00	27733.79
410.00	27896.07
411.00	28084.09
412.00	27515.34
413.00	26867.79
414.00	26258.47
415.00	25974.49
416.00	25777.88
417.00	25823.91
418.00	26237.41
419.00	26725.80
420.00	27327.31
421.00	27761.09
422.00	28220.62
423.00	28474.96
424.00	28684.83
425.00	28754.26
426.00	28722.27
427.00	28500.70
428.00	28332.18
429.00	28310.34
430.00	28444.53
431.00	28449.21
432.00	28496.02
433.00	28427.37
434.00	28525.67
435.00	28638.80
436.00	28791.71
437.00	29123.29
438.00	29412.73
439.00	29759.91
440.00	30192.13
441.00	30599.38
442.00	30895.07
443.00	30814.71
444.00	30598.60
445.00	30452.71
446.00	30212.42
447.00	30051.70
448.00	29887.08
449.00	29656.15
450.00	29326.91
451.00	29067.89
452.00	28571.70
453.00	28029.48
454.00	27522.36
455.00	27521.58
456.00	27903.09
457.00	28375.09
458.00	28949.31
459.00	29326.13
460.00	29682.67
461.00	29781.76
462.00	29718.56
463.00	29356.56
464.00	29239.53
465.00	29153.71
466.00	29361.24
467.00	29559.41
468.00	29817.64
469.00	30166.38
470.00	30620.45
471.00	30957.49
472.00	31115.08
473.00	30899.75
474.00	31086.22
475.00	31147.07
476.00	31491.91
477.00	31678.37
478.00	31929.59
479.00	32001.36
480.00	31597.23
481.00	31317.93
482.00	30734.35
483.00	30380.93
484.00	30252.20
485.00	30533.07
486.00	31041.74
487.00	31071.39
488.00	30947.34
489.00	30859.96
490.00	30788.97
491.00	30849.04
492.00	30735.13
493.00	30834.22
494.00	30886.49
495.00	31023.80
496.00	31346.79
497.00	31742.35
498.00	32070.02
499.00	32180.03
500.00	32084.84
501.00	32137.12
502.00	32182.37
503.00	32247.12
504.00	32328.26
505.00	32432.02
506.00	32559.97
507.00	32776.08
508.00	32753.46
509.00	32841.62
510.00	32695.72
511.00	32674.66
512.00	32620.83
513.00	32496.00
514.00	32255.70
515.00	32027.11
516.00	31796.96
517.00	31755.61
518.00	31497.37
519.00	31370.20
520.00	31424.81
521.00	31541.84
522.00	31550.42
523.00	31780.57
524.00	32112.15
525.00	32662.18
526.00	32400.82
527.00	32130.09
528.00	31392.83
529.00	30956.71
530.00	30603.28
531.00	30614.99
532.00	30919.26
533.00	31263.32
534.00	31411.55
535.00	31614.40
536.00	31381.12
537.00	31369.42
538.00	31427.15
539.00	31615.18
540.00	31924.91
541.00	31898.38
542.00	32021.65
543.00	32079.38
544.00	32155.06
545.00	32289.25
546.00	31826.60
547.00	31469.28
548.00	31093.24
549.00	31339.77
550.00	31203.24
551.00	31222.75
552.00	31097.14
553.00	31408.43
554.00	31598.01
555.00	32080.94
556.00	32494.44
557.00	33184.90
558.00	33679.53
559.00	34018.91
560.00	34270.90
561.00	34270.90
562.00	33901.10
563.00	33454.84
564.00	32939.14
565.00	33124.82
566.00	33287.10
567.00	33347.17
568.00	33466.54
569.00	33383.84
570.00	33809.82
571.00	34238.14
572.00	34764.76
573.00	34922.35
574.00	34898.17
575.00	34849.02
576.00	35024.56
577.00	34941.86
578.00	34806.89
579.00	34433.96
580.00	34457.37
581.00	34361.40
582.00	34501.06
583.00	34238.14
584.00	34661.77
585.00	35031.58
586.00	35733.74
587.00	35952.97
588.00	36220.57
589.00	36616.90
590.00	37064.72
591.00	37553.90
592.00	37816.82
593.00	37899.51
594.00	37844.90
595.00	37659.22
596.00	37790.29
597.00	38068.81
598.00	38659.41
599.00	39182.13
600.00	39748.54
601.00	39754.00
602.00	39743.86
603.00	39703.29
604.00	39956.85
605.00	40432.75
606.00	40471.76
607.00	40670.71
608.00	40722.20
609.00	41103.71
610.00	41368.97
611.00	41505.50
612.00	41674.02
613.00	42121.06
614.00	42351.21
615.00	42547.82
616.00	42448.74
617.00	42510.37
618.00	42551.72
619.00	42682.01
620.00	42947.27
621.00	43144.66
622.00	43370.91
623.00	43718.09
624.00	43746.17
625.00	43561.27
626.00	43281.19
627.00	43451.27
628.00	43753.19
629.00	44041.08
630.00	44401.52
631.00	44223.64
632.00	43562.05
633.00	42547.82
634.00	41290.17
635.00	39629.17
636.00	37961.93
637.00	37182.53
638.00	37515.67
639.00	38423.01
640.00	39569.88
641.00	40732.34
642.00	41692.74
643.00	42560.30
644.00	43337.36
645.00	44339.89
646.00	45332.28
647.00	46123.38
648.00	46729.58
649.00	46941.00
650.00	46799.79
651.00	46351.19
652.00	45933.01
653.00	46054.72
654.00	46458.85
655.00	47537.84
656.00	48538.81
657.00	49567.09
658.00	49931.43
659.00	50239.60
660.00	50284.07
661.00	50389.39
662.00	50053.14
663.00	49910.36
664.00	49727.80
665.00	49803.48
666.00	49937.67
667.00	49777.73
668.00	49372.82
669.00	48617.61
670.00	48213.48
671.00	48258.73
672.00	48861.02
673.00	49688.01
674.00	50637.49
675.00	51411.43
676.00	51700.87
677.00	51564.34
678.00	51054.11
679.00	50897.29
680.00	50870.76
681.00	51232.77
682.00	51637.68
683.00	52338.28
684.00	52896.89
685.00	53381.38
686.00	53506.99
687.00	53560.04
688.00	53298.68
689.00	53010.79
690.00	52637.87
691.00	52520.06
692.00	52577.01
693.00	52981.15
694.00	53486.70
695.00	53985.24
696.00	53998.50
697.00	53975.87
698.00	53967.29
699.00	54268.44
700.00	54478.31
701.00	54632.78
702.00	54305.89
703.00	53902.54
704.00	53255.77
705.00	52907.81
706.00	52797.80
707.00	53068.53
708.00	53535.07
709.00	54004.74
710.00	54285.61
711.00	54638.25
712.00	54813.79
713.00	54865.28
714.00	54689.74
715.00	54252.84
716.00	53818.28
717.00	53535.07
718.00	53250.31
719.00	53298.68
720.00	53230.02
721.00	53292.44
722.00	53095.83
723.00	52853.20
724.00	52814.97
725.00	52701.06
726.00	52694.82
727.00	52917.95
728.00	53237.05
729.00	53627.91
730.00	53912.68
731.00	54130.35
732.00	54358.16
733.00	54356.60
734.00	54381.57
735.00	54160.78
736.00	53642.74
737.00	53162.93
738.00	52892.99
739.00	53090.37
740.00	53475.78
741.00	54119.43
742.00	54450.22
743.00	54563.35
744.00	54575.05
745.00	54869.96
746.00	55296.72
747.00	55618.93
748.00	55877.95
749.00	56075.33
750.00	56091.72
751.00	55807.73
752.00	55689.93
753.00	55356.79
754.00	55322.46
755.00	55146.92
756.00	55202.32
757.00	55120.40
758.00	54832.51
759.00	54512.64
760.00	54156.88
761.00	54122.55
762.00	54284.83
763.00	54645.27
764.00	54984.65
765.00	55372.39
766.00	55793.69
767.00	56100.30
768.00	56161.15
769.00	56069.87
770.00	55904.48
771.00	55575.24
772.00	55479.28
773.00	55442.61
774.00	55577.58
775.00	55570.56
776.00	55552.62
777.00	55622.05
778.00	55680.56
779.00	55974.69
780.00	56180.66
781.00	56509.11
782.00	56633.94
783.00	56638.62
784.00	56384.29
785.00	55942.70
786.00	55696.17
787.00	55469.14
788.00	55455.87
789.00	55515.95
790.00	55551.05
791.00	55655.60
792.00	55518.29
793.00	55458.21
794.00	55206.22
795.00	54957.34
796.00	54844.99
797.00	54859.04
798.00	55033.02
799.00	55188.27
800.00	55384.10
801.00	55498.00
802.00	55631.41
803.00	55564.32
804.00	55669.64
805.00	55845.18
806.00	56054.27
807.00	55801.49
808.00	55067.34
809.00	53924.38
810.00	52728.37
811.00	51322.49
812.00	50189.67
813.00	49528.86
814.00	50138.96
815.00	51362.28
816.00	52949.16
817.00	53741.04
818.00	53813.60
819.00	53085.69
820.00	52322.68
821.00	51998.90
822.00	52322.68
823.00	52976.47
824.00	53583.44
825.00	54141.27
826.00	54429.94
827.00	54766.20
828.00	55068.90
829.00	55537.01
830.00	55885.75
831.00	55929.44
832.00	55744.54
833.00	55422.33
834.00	55265.51
835.00	55275.65
836.00	55598.65
837.00	55904.48
838.00	56196.26
839.00	56264.92
840.00	56394.43
841.00	56403.79
842.00	56495.85
843.00	56258.68
844.00	55888.09
845.00	55473.04
846.00	55138.34
847.00	55026.77
848.00	55072.81
849.00	55332.60
850.00	55630.63
851.00	56062.07
852.00	56406.91
853.00	56854.73
854.00	57008.43
855.00	57198.01
856.00	57126.24
857.00	56994.39
858.00	56828.21
859.00	56618.34
860.00	56481.03
861.00	56463.86
862.00	56628.48
863.00	56756.43
864.00	56658.91
865.00	56143.99
866.00	55323.24
867.00	54303.55
868.00	53325.21
869.00	52782.20
870.00	52414.74
871.00	52645.67
872.00	53034.20
873.00	53824.52
874.00	54518.88
875.00	55108.69
876.00	55530.77
877.00	55770.28
878.00	55872.49
879.00	56108.10
880.00	56395.21
881.00	56738.49
882.00	56864.88
883.00	56976.44
884.00	56939.77
885.00	56694.80
886.00	56268.82
887.00	55901.36
888.00	55753.90
889.00	55923.98
890.00	56148.67
891.00	56509.11
892.00	56712.74
893.00	56852.39
894.00	56887.50
895.00	56947.57
896.00	56966.30
897.00	56818.84
898.00	56652.67
899.00	56516.14
900.00	56253.22
901.00	55820.22
902.00	55197.63
903.00	54624.20
904.00	54181.06
905.00	54161.56
906.00	54391.71
907.00	54779.46
908.00	55095.43
909.00	55635.31
910.00	55806.17
911.00	55805.39
912.00	55390.34
913.00	55292.82
914.00	55246.79
915.00	55413.74
916.00	55457.43
917.00	55709.43
918.00	55924.76
919.00	56145.55
920.00	56339.82
921.00	56572.31
922.00	56799.34
923.00	56690.12
924.00	56442.80
925.00	55934.12
926.00	55591.62
927.00	55136.00
928.00	54808.32
929.00	54451.00
930.00	54427.60
931.00	54703.78
932.00	55125.86
933.00	55397.36
934.00	55431.69
935.00	55410.62
936.00	55405.94
937.00	55483.96
938.00	55461.33
939.00	55419.20
940.00	55309.98
941.00	55013.51
942.00	54760.73
943.00	54489.23
944.00	54343.34
945.00	54159.22
946.00	54074.18
947.00	53975.87
948.00	53865.09
949.00	53592.81
950.00	53471.10
951.00	53255.77
952.00	53106.76
953.00	53113.78
954.00	53404.00
955.00	53805.80
956.00	54102.26
957.00	54211.49
958.00	54400.29
959.00	54367.52
960.00	54341.00
961.00	54165.46
962.00	54123.33
963.00	54128.79
964.00	54202.13
965.00	54102.26
966.00	54065.59
967.00	54089.00
968.00	54289.51
969.00	54475.97
970.00	54844.21
971.00	55139.90
972.00	55271.75
973.00	55054.08
974.00	54784.14
975.00	54710.02
976.00	54619.52
977.00	54630.44
978.00	54429.94
979.00	54373.77
980.00	54178.72
981.00	54359.72
982.00	54221.63
983.00	54305.89
984.00	54150.63
985.00	54163.12
986.00	54085.88
987.00	54003.18
988.00	54181.06
989.00	54116.31
990.00	54069.50
991.00	53666.14
992.00	53503.87
993.00	53228.46
994.00	53235.48
995.00	53315.06
996.00	53605.29
997.00	53880.69
998.00	54094.46
999.00	54152.19
1000.00	54143.61
1001.00	54176.38
1002.00	54269.22
1003.00	54264.54
1004.00	54293.41
1005.00	54170.92
1006.00	54127.23
1007.00	54001.62
1008.00	54014.10
1009.00	53848.71
1010.00	53726.22
1011.00	53471.88
1012.00	53517.13
1013.00	53364.21
1014.00	53451.59
1015.00	53439.89
1016.00	53687.99
1017.00	53949.35
1018.00	54113.19
1019.00	54216.95
1020.00	54011.76
1021.00	53850.27
1022.00	53553.80
1023.00	53272.93
1024.00	53079.45
1025.00	53017.03
1026.00	53191.01
1027.00	53299.46
1028.00	53413.37
1029.00	53430.53
1030.00	53450.81
1031.00	53661.46
1032.00	53779.27
1033.00	53997.72
1034.00	53875.23
1035.00	53924.38
1036.00	53931.40
1037.00	54032.83
1038.00	53900.20
1039.00	53659.12
1040.00	53425.85
1041.00	53276.05
1042.00	53165.27
1043.00	53070.09
1044.00	52979.59
1045.00	52813.41
1046.00	52583.26
1047.00	52282.11
1048.00	52135.43
1049.00	52077.70
1050.00	52224.37
1051.00	52215.79
1052.00	52385.87
1053.00	52499.78
1054.00	52618.36
1055.00	52518.50
1056.00	52320.34
1057.00	52090.18
1058.00	51541.72
1059.00	50964.38
1060.00	50585.22
1061.00	50629.69
1062.00	50898.85
1063.00	51010.42
1064.00	51083.75
1065.00	51107.94
1066.00	51098.58
1067.00	51067.37
1068.00	51171.91
1069.00	51443.41
1070.00	51823.36
1071.00	52140.11
1072.00	52438.92
1073.00	52513.04
1074.00	52201.75
1075.00	51818.68
1076.00	51302.20
1077.00	51042.40
1078.00	50869.98
1079.00	50880.91
1080.00	50969.07
1081.00	51165.67
1082.00	51437.95
1083.00	51523.77
1084.00	51608.81
1085.00	51756.27
1086.00	51867.83
1087.00	51761.73
1088.00	51470.72
1089.00	51348.23
1090.00	51095.45
1091.00	50817.71
1092.00	50663.24
1093.00	50749.06
1094.00	51112.62
1095.00	51178.15
1096.00	51124.32
1097.00	50912.89
1098.00	50785.72
1099.00	50601.60
1100.00	50270.81
1101.00	49800.36
1102.00	49466.44
1103.00	49240.97
1104.00	49154.37
1105.00	49282.32
1106.00	49477.36
1107.00	49793.34
1108.00	50011.01
1109.00	50115.55
1110.00	50346.48
1111.00	50418.26
1112.00	50559.47
1113.00	50373.79
1114.00	50253.64
1115.00	49871.35
1116.00	49582.69
1117.00	49250.33
1118.00	48988.97
1119.00	48653.50
1120.00	48300.86
1121.00	48288.37
1122.00	48413.98
1123.00	48644.13
1124.00	48811.09
1125.00	48876.63
1126.00	48885.21
1127.00	48741.66
1128.00	48580.16
1129.00	48216.60
1130.00	47952.90
1131.00	47520.68
1132.00	47289.74
1133.00	46873.13
1134.00	46696.03
1135.00	46565.74
1136.00	46613.33
1137.00	46869.23
1138.00	47107.96
1139.00	47633.02
1140.00	48034.81
1141.00	48399.94
1142.00	48495.90
1143.00	48507.60
1144.00	48518.53
1145.00	48390.58
1146.00	48291.49
1147.00	48087.87
1148.00	47940.41
1149.00	47769.55
1150.00	47760.97
1151.00	47757.07
1152.00	47730.54
1153.00	47743.03
1154.00	47544.86
1155.00	47351.38
1156.00	47001.86
1157.00	46856.74
1158.00	46614.11
1159.00	46344.95
1160.00	46172.53
1161.00	46076.57
1162.00	46112.45
1163.00	46046.92
1164.00	45892.44
1165.00	45804.28
1166.00	45798.04
1167.00	46124.94
1168.00	46462.75
1169.00	46594.60
1170.00	46537.65
1171.00	46312.96
1172.00	46051.60
1173.00	45795.70
1174.00	45712.22
1175.00	45838.61
1176.00	45738.75
1177.00	45348.66
1178.00	44788.49
1179.00	44361.73
1180.00	44316.48
1181.00	44471.74
1182.00	44790.83
1183.00	44926.58
1184.00	45052.97
1185.00	45162.20
1186.00	45216.81
1187.00	45278.44
1188.00	45297.17
1189.00	45399.37
1190.00	45555.41
1191.00	45668.53
1192.00	45533.56
1193.00	45437.60
1194.00	45317.45
1195.00	45321.35
1196.00	45315.89
1197.00	45358.80
1198.00	45536.68
1199.00	45662.29
1200.00	45648.25
1201.00	45744.99
1202.00	45649.81
1203.00	45869.82
1204.00	45979.04
1205.00	46140.54
1206.00	46057.84
1207.00	46064.08
1208.00	45996.99
1209.00	45961.88
1210.00	45858.90
1211.00	45867.48
1212.00	45943.16
1213.00	45936.13
1214.00	45815.21
1215.00	45729.39
1216.00	45644.35
1217.00	45608.46
1218.00	45374.41
1219.00	45340.08
1220.00	45134.89
1221.00	44665.22
1222.00	44260.31
1223.00	43998.17
1224.00	43968.52
1225.00	43609.64
1226.00	43478.57
1227.00	43526.94
1228.00	43579.21
1229.00	43608.08
1230.00	43638.51
1231.00	43825.75
1232.00	43901.43
1233.00	44047.32
1234.00	43898.31
1235.00	43876.46
1236.00	43860.08
1237.00	43813.27
1238.00	43781.28
1239.00	43523.82
1240.00	43293.67
1241.00	42730.38
1242.00	41954.10
1243.00	41054.56
1244.00	39799.25
1245.00	38656.29
1246.00	37819.16
1247.00	37390.84
1248.00	37198.91
1249.00	37264.45
1250.00	37576.52
1251.00	38252.94
1252.00	39064.32
1253.00	40062.17
1254.00	40787.74
1255.00	41224.64
1256.00	41525.00
1257.00	41824.59
1258.00	41901.83
1259.00	41688.06
1260.00	41463.37
1261.00	41400.96
1262.00	41392.37
1263.00	41312.80
1264.00	41169.24
1265.00	41220.73
1266.00	41165.34
1267.00	41174.70
1268.00	41249.60
1269.00	41407.98
1270.00	41418.90
1271.00	41217.61
1272.00	41136.48
1273.00	41153.64
1274.00	41315.92
1275.00	41289.39
1276.00	41341.66
1277.00	40917.25
1278.00	40637.94
1279.00	40205.72
1280.00	40128.48
1281.00	39980.25
1282.00	39828.90
1283.00	39788.33
1284.00	39768.82
1285.00	40096.50
1286.00	40270.48
1287.00	40442.12
1288.00	40498.29
1289.00	40815.82
1290.00	41036.61
1291.00	41204.35
1292.00	41127.11
1293.00	41006.19
1294.00	40865.75
1295.00	40758.87
1296.00	40740.92
1297.00	40637.94
1298.00	40676.17
1299.00	40548.22
1300.00	40479.57
1301.00	40244.73
1302.00	40173.74
1303.00	40037.98
1304.00	39892.87
1305.00	39741.52
1306.00	39629.17
1307.00	39624.49
1308.00	39817.19
1309.00	39949.82
1310.00	40108.20
1311.00	40137.07
1312.00	40343.81
1313.00	40107.42
1314.00	39899.89
1315.00	39672.86
1316.00	39862.44
1317.00	39831.24
1318.00	39611.23
1319.00	39388.88
1320.00	39424.76
1321.00	39265.61
1322.00	39285.11
1323.00	39096.31
1324.00	39207.87
1325.00	39033.89
1326.00	38898.14
1327.00	38741.33
1328.00	38541.60
1329.00	38516.64
1330.00	38581.39
1331.00	38742.11
1332.00	38845.87
1333.00	38814.66
1334.00	38946.51
1335.00	39108.79
1336.00	39378.73
1337.00	39555.83
1338.00	39585.48
1339.00	39480.94
1340.00	39334.26
1341.00	39245.32
1342.00	39147.80
1343.00	39271.07
1344.00	39303.84
1345.00	39357.67
1346.00	39243.76
1347.00	39208.65
1348.00	39080.70
1349.00	39026.09
1350.00	38753.81
1351.00	38697.64
1352.00	38463.58
1353.00	38586.07
1354.00	38451.88
1355.00	38495.57
1356.00	38380.10
1357.00	38584.51
1358.00	38506.49
1359.00	38466.70
1360.00	38409.75
1361.00	38444.86
1362.00	38545.50
1363.00	38492.45
1364.00	38235.77
1365.00	37997.04
1366.00	37701.35
1367.00	37603.05
1368.00	37485.24
1369.00	37411.90
1370.00	37365.09
1371.00	37210.62
1372.00	37207.50
1373.00	37269.91
1374.00	37333.10
1375.00	37197.35
1376.00	37081.11
1377.00	36964.86
1378.00	36914.15
1379.00	36740.17
1380.00	36559.95
1381.00	36422.64
1382.00	36346.96
1383.00	36284.55
1384.00	36368.80
1385.00	36475.69
1386.00	36747.19
1387.00	36806.48
1388.00	36857.20
1389.00	36680.88
1390.00	36578.67
1391.00	36443.70
1392.00	36434.34
1393.00	36135.53
1394.00	35822.68
1395.00	35606.57
1396.00	35615.93
1397.00	35653.38
1398.00	35647.92
1399.00	35810.98
1400.00	35914.74
1401.00	35726.72
1402.00	35528.55
1403.00	35023.00
1404.00	34930.16
1405.00	34511.98
1406.00	34618.08
1407.00	34664.89
1408.00	34811.57
1409.00	34884.12
1410.00	34847.46
1411.00	34985.55
1412.00	35100.23
1413.00	35139.24
1414.00	35106.48
1415.00	34871.64
1416.00	34647.73
1417.00	34220.97
1418.00	33850.39
1419.00	33420.51
1420.00	33222.34
1421.00	33085.81
1422.00	33107.66
1423.00	33063.19
1424.00	33254.33
1425.00	33466.54
1426.00	33695.13
1427.00	33724.78
1428.00	33670.95
1429.00	33754.43
1430.00	33933.87
1431.00	34117.21
1432.00	34265.44
1433.00	34362.18
1434.00	34338.00
1435.00	34291.19
1436.00	34058.70
1437.00	33828.54
1438.00	33564.06
1439.00	33490.73
1440.00	33464.20
1441.00	33597.61
1442.00	33664.71
1443.00	33625.70
1444.00	33539.10
1445.00	33624.14
1446.00	33859.75
1447.00	34000.96
1448.00	33933.09
1449.00	33926.07
1450.00	33792.65
1451.00	33738.82
1452.00	33543.00
1453.00	33397.88
1454.00	33124.82
1455.00	32779.98
1456.00	32558.41
1457.00	32447.63
1458.00	32655.15
1459.00	32768.28
1460.00	32673.10
1461.00	32518.62
1462.00	32266.63
1463.00	32043.49
1464.00	32009.95
1465.00	32038.03
1466.00	31947.53
1467.00	31793.06
1468.00	31697.88
1469.00	31857.03
1470.00	31831.29
1471.00	31733.76
1472.00	31532.48
1473.00	31287.50
1474.00	31095.58
1475.00	31070.61
1476.00	30927.84
1477.00	30814.71
1478.00	30685.98
1479.00	30547.11
1480.00	30383.27
1481.00	30211.64
1482.00	30196.81
1483.00	30242.84
1484.00	30284.97
1485.00	30357.53
1486.00	30451.15
1487.00	30417.60
1488.00	30383.27
1489.00	30353.63
1490.00	30382.49
1491.00	30458.95
1492.00	30354.41
1493.00	29961.98
1494.00	29391.67
1495.00	28777.67
1496.00	28395.38
1497.00	28061.46
1498.00	27875.00
1499.00	27860.96
1500.00	28162.11
1501.00	28438.29
1502.00	28868.17
1503.00	28981.29
1504.00	29046.05
1505.00	28990.66
1506.00	28801.85
1507.00	28697.31
1508.00	28432.05
1509.00	28395.38
1510.00	28206.58
1511.00	28019.33
1512.00	27939.76
1513.00	28165.23
1514.00	28407.08
1515.00	28527.23
1516.00	28446.09
1517.00	28558.44
1518.00	28631.77
1519.00	28671.56
1520.00	28258.85
1521.00	28044.30
1522.00	27612.08
1523.00	27718.96
1524.00	27613.64
1525.00	27966.28
1526.00	28142.60
1527.00	28310.34
1528.00	28426.59
1529.00	28492.90
1530.00	28595.89
1531.00	28588.08
1532.00	28496.02
1533.00	28390.70
1534.00	28085.65
1535.00	27980.32
1536.00	27975.64
1537.00	28008.41
1538.00	27936.63
1539.00	27985.79
1540.00	28013.87
1541.00	28099.69
1542.00	28026.35
1543.00	28162.89
1544.00	28233.10
1545.00	28306.44
1546.00	28342.33
1547.00	28341.55
1548.00	28328.28
1549.00	28149.62
1550.00	27987.35
1551.00	27656.55
1552.00	27540.30
1553.00	27549.67
1554.00	27719.74
1555.00	27837.55
1556.00	27865.64
1557.00	27806.34
1558.00	27885.14
1559.00	27896.85
1560.00	28018.55
1561.00	27948.34
1562.00	28038.06
1563.00	28014.65
1564.00	27957.70
1565.00	27902.31
1566.00	27785.28
1567.00	27759.53
1568.00	27614.42
1569.00	27714.28
1570.00	27733.01
1571.00	27807.90
1572.00	27596.48
1573.00	27452.14
1574.00	27206.39
1575.00	27173.62
1576.00	26994.18
1577.00	26904.46
1578.00	26789.77
1579.00	26803.03
1580.00	26806.94
1581.00	26803.03
1582.00	26720.34
1583.00	26682.11
1584.00	26535.43
1585.00	26508.13
1586.00	26341.17
1587.00	26210.88
1588.00	26254.57
1589.00	26217.90
1590.00	26276.41
1591.00	26176.55
1592.00	26235.06
1593.00	26128.96
1594.00	26199.96
1595.00	26233.50
1596.00	26471.46
1597.00	26497.20
1598.00	26477.70
1599.00	26229.60
1600.00	26082.93
1601.00	25823.13
1602.00	25867.60
1603.00	25750.57
1604.00	25911.29
1605.00	25863.70
1606.00	25781.78
1607.00	25722.49
1608.00	25716.25
1609.00	25748.23
1610.00	25685.82
1611.00	25589.08
1612.00	25564.89
1613.00	25472.83
1614.00	25441.62
1615.00	25394.03
1616.00	25302.75
1617.00	25322.26
1618.00	25188.85
1619.00	25123.31
1620.00	24871.31
1621.00	24794.86
1622.00	24657.54
1623.00	24578.75
1624.00	24638.04
1625.00	24645.84
1626.00	24634.92
1627.00	24444.56
1628.00	24301.78
1629.00	24171.49
1630.00	23999.85
1631.00	24024.82
1632.00	23924.96
1633.00	23933.54
1634.00	23959.28
1635.00	24014.68
1636.00	24041.20
1637.00	23956.16
1638.00	23913.25
1639.00	23795.45
1640.00	23577.78
1641.00	23230.60
1642.00	22893.56
1643.00	22794.48
1644.00	22835.05
1645.00	23096.41
1646.00	23236.06
1647.00	23705.73
1648.00	24023.26
1649.00	24369.66
1650.00	24376.68
1651.00	24282.28
1652.00	24237.81
1653.00	24268.23
1654.00	24149.65
1655.00	23996.73
1656.00	23648.77
1657.00	23484.16
1658.00	23162.72
1659.00	23088.60
1660.00	23123.71
1661.00	23278.97
1662.00	23361.67
1663.00	23456.85
1664.00	23491.18
1665.00	23559.83
1666.00	23573.10
1667.00	23635.51
1668.00	23663.60
1669.00	23648.77
1670.00	23553.59
1671.00	23541.89
1672.00	23613.66
1673.00	23699.48
1674.00	23591.82
1675.00	23295.35
1676.00	23132.29
1677.00	22895.12
1678.00	22765.61
1679.00	22521.41
1680.00	22380.20
1681.00	22322.47
1682.00	22212.46
1683.00	22037.70
1684.00	21635.91
1685.00	21214.62
1686.00	20617.00
1687.00	19869.59
1688.00	18902.17
1689.00	18146.17
1690.00	17848.15
1691.00	18010.42
1692.00	18447.32
1693.00	19004.37
1694.00	19643.34
1695.00	20236.27
1696.00	20680.19
1697.00	20996.17
1698.00	21483.00
1699.00	21747.48
1700.00	21972.95
1701.00	21884.79
1702.00	21975.29
1703.00	22017.42
1704.00	22057.99
1705.00	22132.11
1706.00	22188.28
1707.00	22219.49
1708.00	22139.91
1709.00	21925.36
1710.00	21731.09
1711.00	21577.40
1712.00	21682.72
1713.00	21768.54
1714.00	21837.98
1715.00	21820.81
1716.00	21926.14
1717.00	21906.63
1718.00	21936.28
1719.00	21808.33
1720.00	21821.59
1721.00	21695.99
1722.00	21793.51
1723.00	21811.45
1724.00	21856.70
1725.00	21726.41
1726.00	21603.92
1727.00	21615.63
1728.00	21730.31
1729.00	21839.54
1730.00	21752.94
1731.00	21624.99
1732.00	21504.84
1733.00	21484.56
1734.00	21446.33
1735.00	21373.77
1736.00	21181.07
1737.00	21025.03
1738.00	20919.71
1739.00	20936.87
1740.00	20847.93
1741.00	20782.40
1742.00	20815.16
1743.00	20786.30
1744.00	20840.91
1745.00	20706.72
1746.00	20818.28
1747.00	20706.72
1748.00	20755.87
1749.00	20709.84
1750.00	20720.76
1751.00	20699.70
1752.00	20679.41
1753.00	20643.52
1754.00	20599.84
1755.00	20400.89
1756.00	20369.68
1757.00	20351.74
1758.00	20368.90
1759.00	20238.61
1760.00	20047.47
1761.00	19977.25
1762.00	19963.99
1763.00	19967.11
1764.00	19917.96
1765.00	19836.82
1766.00	19855.54
1767.00	19775.19
1768.00	19801.71
1769.00	19657.38
1770.00	19651.92
1771.00	19623.83
1772.00	19654.26
1773.00	19701.07
1774.00	19682.34
1775.00	19655.82
1776.00	19565.32
1777.00	19609.79
1778.00	19644.12
1779.00	19609.01
1780.00	19495.10
1781.00	19315.66
1782.00	19303.18
1783.00	19186.15
1784.00	19066.78
1785.00	18892.02
1786.00	18774.22
1787.00	18766.42
1788.00	18704.00
1789.00	18849.11
1790.00	18871.74
1791.00	18817.13
1792.00	18609.60
1793.00	18537.82
1794.00	18572.15
1795.00	18550.31
1796.00	18410.65
1797.00	18299.87
1798.00	18226.53
1799.00	18260.86
1800.00	18219.51
1801.00	18135.25
1802.00	18043.19
1803.00	17948.79
1804.00	17916.02
1805.00	17910.56
1806.00	17968.29
1807.00	17994.04
1808.00	17883.25
1809.00	17814.60
1810.00	17761.55
1811.00	17805.24
1812.00	17699.91
1813.00	17682.75
1814.00	17581.32
1815.00	17639.06
1816.00	17493.16
1817.00	17427.63
1818.00	17299.68
1819.00	17189.67
1820.00	17099.95
1821.00	17018.04
1822.00	17059.38
1823.00	17138.96
1824.00	17227.12
1825.00	17192.80
1826.00	17195.92
1827.00	17141.30
1828.00	17220.88
1829.00	17209.96
1830.00	17102.29
1831.00	16968.88
1832.00	16815.97
1833.00	16822.21
1834.00	16705.18
1835.00	16659.93
1836.00	16373.61
1837.00	16359.56
1838.00	16298.71
1839.00	16388.43
1840.00	16358.00
1841.00	16386.87
1842.00	16353.32
1843.00	16255.02
1844.00	16052.17
1845.00	16031.89
1846.00	15913.30
1847.00	15786.13
1848.00	15701.09
1849.00	15690.95
1850.00	15591.09
1851.00	15477.18
1852.00	15414.77
1853.00	15504.49
1854.00	15541.94
1855.00	15516.97
1856.00	15467.82
1857.00	15409.31
1858.00	15353.91
1859.00	15301.64
1860.00	15140.15
1861.00	15071.49
1862.00	15042.62
1863.00	15083.97
1864.00	15015.32
1865.00	14952.12
1866.00	14885.03
1867.00	14909.99
1868.00	14862.40
1869.00	14905.31
1870.00	14781.26
1871.00	14681.40
1872.00	14590.90
1873.00	14645.51
1874.00	14683.74
1875.00	14626.79
1876.00	14558.91
1877.00	14525.36
1878.00	14475.43
1879.00	14364.65
1880.00	14242.16
1881.00	14114.21
1882.00	14066.62
1883.00	13994.84
1884.00	13945.69
1885.00	13856.75
1886.00	13693.69
1887.00	13588.37
1888.00	13471.34
1889.00	13447.16
1890.00	13413.61
1891.00	13444.04
1892.00	13461.98
1893.00	13530.64
1894.00	13498.65
1895.00	13489.29
1896.00	13350.42
1897.00	13238.85
1898.00	13129.63
1899.00	12951.74
1900.00	13012.60
1901.00	12970.47
1902.00	12931.46
1903.00	12622.51
1904.00	12249.58
1905.00	11641.82
1906.00	10797.67
1907.00	9859.90
1908.00	9083.62
1909.00	8404.08
1910.00	7986.69
1911.00	7776.82
1912.00	7924.27
1913.00	8209.82
1914.00	8611.61
1915.00	9039.15
1916.00	9482.29
1917.00	9790.46
1918.00	9994.87
1919.00	10034.66
1920.00	10044.80
1921.00	9843.51
1922.00	9710.10
1923.00	9547.83
1924.00	9522.08
1925.00	9458.10
1926.00	9497.89
1927.00	9418.32
1928.00	9439.38
1929.00	9417.54
1930.00	9618.82
1931.00	9757.69
1932.00	9890.32
1933.00	9935.57
1934.00	9930.89
1935.00	9983.95
1936.00	10003.45
1937.00	10124.38
1938.00	10152.46
1939.00	10274.17
1940.00	10241.40
1941.00	10160.27
1942.00	10037.78
1943.00	10029.20
1944.00	10060.40
1945.00	10093.95
1946.00	10099.41
1947.00	10113.45
1948.00	10128.28
1949.00	10075.23
1950.00	10055.72
1951.00	9973.80
1952.00	9869.26
1953.00	9782.66
1954.00	9750.67
1955.00	9795.92
1956.00	9771.74
1957.00	9710.88
1958.00	9586.05
1959.00	9414.41
1960.00	9308.31
1961.00	9236.53
1962.00	9259.94
1963.00	9233.41
1964.00	9286.47
1965.00	9238.09
1966.00	9202.21
1967.00	9106.24
1968.00	9134.33
1969.00	9178.80
1970.00	9185.04
1971.00	9156.18
1972.00	9089.08
1973.00	8992.34
1974.00	9018.08
1975.00	9049.29
1976.00	9077.38
1977.00	8994.68
1978.00	9001.70
1979.00	9100.00
1980.00	9160.08
1981.00	9178.02
1982.00	9160.86
1983.00	9159.30
1984.00	9093.76
1985.00	8993.12
1986.00	8922.12
1987.00	8887.79
1988.00	8809.78
1989.00	8686.51
1990.00	8572.60
1991.00	8509.41
1992.00	8528.13
1993.00	8469.62
1994.00	8494.58
1995.00	8403.30
1996.00	8371.32
1997.00	8252.73
1998.00	8174.71
1999.00	8125.56
2000.00	8063.93
2001.00	8001.51
2002.00	7979.67
2003.00	7949.24
2004.00	7937.54
2005.00	7858.74
2006.00	7849.38
2007.00	7817.39
2008.00	7714.41
2009.00	7588.02
2010.00	7504.54
2011.00	7509.22
2012.00	7562.27
2013.00	7622.34
2014.00	7642.63
2015.00	7570.85
2016.00	7525.60
2017.00	7453.83
2018.00	7392.19
2019.00	7284.53
2020.00	7240.06
2021.00	7277.51
2022.00	7371.13
2023.00	7321.20
2024.00	7181.54
2025.00	7050.47
2026.00	7026.29
2027.00	7074.66
2028.00	7105.87
2029.00	7158.14
2030.00	7126.15
2031.00	7140.97
2032.00	7112.89
2033.00	7096.50
2034.00	7009.90
2035.00	6954.51
2036.00	6949.05
2037.00	6940.47
2038.00	6926.43
2039.00	6956.07
2040.00	7014.59
2041.00	7034.09
2042.00	7009.12
2043.00	6903.02
2044.00	6796.14
2045.00	6661.94
2046.00	6616.69
2047.00	6654.14
>>>>>End Processed Spectral Data<<<<<
