SpectraSuite Data File
++++++++++++++++++++++++++++++++++++
Date: Thu Nov 16 14:27:27 EST 2017
User: cheriyan
Dark Spectrum Present: No
Reference Spectrum Present: No
Number of Sampled Component Spectra: 1
Spectrometers: USB2+H05261
Integration Time (usec): 100000 (USB2+H05261)
Spectra Averaged: 1 (USB2+H05261)
Boxcar Smoothing: 1 (USB2+H05261)
Correct for Electrical Dark: No (USB2+H05261)
Strobe/Lamp Enabled: No (USB2+H05261)
Correct for Detector Non-linearity: No (USB2+H05261)
Correct for Stray Light: No (USB2+H05261)
Number of Pixels in Processed Spectrum: 2048
>>>>>Begin Processed Spectral Data<<<<<
0.00	264.48
1.00	264.48
2.00	279.30
3.00	257.46
4.00	280.86
5.00	252.78
6.00	273.84
7.00	210.65
8.00	198.17
9.00	188.80
10.00	220.01
11.00	226.25
12.00	219.23
13.00	217.67
14.00	220.79
15.00	225.47
16.00	248.10
17.00	251.22
18.00	277.74
19.00	259.02
20.00	267.60
21.00	252.00
22.00	250.44
23.00	281.64
24.00	275.40
25.00	309.73
26.00	322.21
27.00	347.18
28.00	337.04
29.00	328.46
30.00	315.19
31.00	320.65
32.00	312.85
33.00	331.58
34.00	334.70
35.00	360.44
36.00	373.71
37.00	386.97
38.00	379.17
39.00	397.89
40.00	399.45
41.00	422.08
42.00	446.26
43.00	430.66
44.00	392.43
45.00	355.76
46.00	377.61
47.00	403.35
48.00	393.21
49.00	390.87
50.00	384.63
51.00	401.79
52.00	404.91
53.00	393.21
54.00	380.73
55.00	365.90
56.00	369.02
57.00	375.27
58.00	386.97
59.00	368.24
60.00	362.00
61.00	347.18
62.00	366.68
63.00	376.83
64.00	381.51
65.00	404.91
66.00	413.49
67.00	410.37
68.00	380.73
69.00	338.60
70.00	367.46
71.00	373.71
72.00	383.85
73.00	360.44
74.00	355.76
75.00	356.54
76.00	358.88
77.00	380.73
78.00	404.13
79.00	405.69
80.00	382.29
81.00	367.46
82.00	374.49
83.00	382.29
84.00	384.63
85.00	361.22
86.00	357.32
87.00	351.86
88.00	389.31
89.00	401.01
90.00	400.23
91.00	370.58
92.00	371.36
93.00	365.90
94.00	380.73
95.00	380.73
96.00	410.37
97.00	398.67
98.00	386.19
99.00	364.34
100.00	378.39
101.00	376.05
102.00	402.57
103.00	395.55
104.00	395.55
105.00	398.67
106.00	390.09
107.00	411.15
108.00	393.21
109.00	422.86
110.00	411.15
111.00	386.97
112.00	360.44
113.00	356.54
114.00	356.54
115.00	354.20
116.00	367.46
117.00	393.99
118.00	395.55
119.00	379.95
120.00	380.73
121.00	383.85
122.00	393.99
123.00	382.29
124.00	381.51
125.00	368.24
126.00	340.94
127.00	330.02
128.00	326.11
129.00	362.00
130.00	365.90
131.00	360.44
132.00	359.66
133.00	388.53
134.00	411.93
135.00	418.18
136.00	395.55
137.00	400.23
138.00	399.45
139.00	390.87
140.00	389.31
141.00	396.33
142.00	426.76
143.00	409.59
144.00	388.53
145.00	368.24
146.00	360.44
147.00	378.39
148.00	382.29
149.00	383.07
150.00	368.24
151.00	368.24
152.00	372.93
153.00	399.45
154.00	412.71
155.00	411.15
156.00	377.61
157.00	374.49
158.00	397.11
159.00	408.03
160.00	401.79
161.00	381.51
162.00	385.41
163.00	374.49
164.00	372.15
165.00	378.39
166.00	387.75
167.00	378.39
168.00	381.51
169.00	379.95
170.00	390.87
171.00	374.49
172.00	372.15
173.00	405.69
174.00	408.81
175.00	383.85
176.00	376.05
177.00	352.64
178.00	379.17
179.00	358.88
180.00	389.31
181.00	399.45
182.00	397.89
183.00	386.19
184.00	378.39
185.00	397.11
186.00	393.99
187.00	388.53
188.00	376.05
189.00	397.11
190.00	393.21
191.00	401.01
192.00	383.85
193.00	411.15
194.00	419.74
195.00	424.42
196.00	404.13
197.00	357.32
198.00	354.20
199.00	364.34
200.00	381.51
201.00	389.31
202.00	378.39
203.00	374.49
204.00	376.05
205.00	384.63
206.00	405.69
207.00	419.74
208.00	417.40
209.00	433.78
210.00	429.10
211.00	461.87
212.00	457.18
213.00	457.96
214.00	404.91
215.00	398.67
216.00	379.17
217.00	397.89
218.00	389.31
219.00	403.35
220.00	405.69
221.00	394.77
222.00	385.41
223.00	395.55
224.00	410.37
225.00	417.40
226.00	393.99
227.00	361.22
228.00	337.04
229.00	318.31
230.00	337.82
231.00	344.84
232.00	380.73
233.00	393.99
234.00	402.57
235.00	404.13
236.00	397.11
237.00	403.35
238.00	391.65
239.00	406.47
240.00	406.47
241.00	376.05
242.00	366.68
243.00	361.22
244.00	384.63
245.00	395.55
246.00	373.71
247.00	376.05
248.00	349.52
249.00	365.90
250.00	352.64
251.00	363.56
252.00	351.08
253.00	354.20
254.00	372.15
255.00	393.99
256.00	399.45
257.00	380.73
258.00	389.31
259.00	400.23
260.00	415.84
261.00	408.81
262.00	397.89
263.00	395.55
264.00	433.78
265.00	444.70
266.00	436.90
267.00	434.56
268.00	436.90
269.00	428.32
270.00	382.29
271.00	374.49
272.00	418.18
273.00	443.14
274.00	455.62
275.00	432.22
276.00	420.52
277.00	398.67
278.00	390.87
279.00	377.61
280.00	415.06
281.00	412.71
282.00	414.27
283.00	396.33
284.00	407.25
285.00	405.69
286.00	384.63
287.00	362.78
288.00	364.34
289.00	364.34
290.00	364.34
291.00	373.71
292.00	376.83
293.00	383.85
294.00	382.29
295.00	377.61
296.00	360.44
297.00	350.30
298.00	372.93
299.00	397.11
300.00	390.87
301.00	372.15
302.00	364.34
303.00	363.56
304.00	390.09
305.00	400.23
306.00	391.65
307.00	365.90
308.00	364.34
309.00	385.41
310.00	390.87
311.00	383.85
312.00	393.99
313.00	397.11
314.00	401.79
315.00	393.99
316.00	389.31
317.00	365.12
318.00	354.98
319.00	364.34
320.00	383.07
321.00	401.79
322.00	394.77
323.00	400.23
324.00	377.61
325.00	377.61
326.00	354.98
327.00	367.46
328.00	384.63
329.00	389.31
330.00	408.81
331.00	407.25
332.00	405.69
333.00	386.97
334.00	379.17
335.00	398.67
336.00	391.65
337.00	375.27
338.00	371.36
339.00	359.66
340.00	382.29
341.00	401.79
342.00	398.67
343.00	401.01
344.00	420.52
345.00	457.96
346.00	439.24
347.00	388.53
348.00	372.15
349.00	379.95
350.00	390.09
351.00	398.67
352.00	402.57
353.00	433.00
354.00	426.76
355.00	431.44
356.00	395.55
357.00	398.67
358.00	386.19
359.00	392.43
360.00	387.75
361.00	437.68
362.00	428.32
363.00	417.40
364.00	360.44
365.00	365.90
366.00	380.73
367.00	393.21
368.00	394.77
369.00	389.31
370.00	358.10
371.00	361.22
372.00	351.08
373.00	384.63
374.00	385.41
375.00	382.29
376.00	354.98
377.00	336.26
378.00	334.70
379.00	371.36
380.00	388.53
381.00	398.67
382.00	395.55
383.00	393.21
384.00	439.24
385.00	460.31
386.00	464.21
387.00	416.62
388.00	390.09
389.00	372.15
390.00	374.49
391.00	372.15
392.00	400.23
393.00	388.53
394.00	389.31
395.00	399.45
396.00	404.91
397.00	412.71
398.00	379.95
399.00	372.93
400.00	369.02
401.00	376.83
402.00	397.89
403.00	393.21
404.00	404.91
405.00	389.31
406.00	376.05
407.00	376.05
408.00	372.15
409.00	383.07
410.00	357.32
411.00	358.10
412.00	362.00
413.00	379.95
414.00	366.68
415.00	362.00
416.00	358.88
417.00	375.27
418.00	379.95
419.00	401.01
420.00	416.62
421.00	405.69
422.00	397.11
423.00	376.83
424.00	388.53
425.00	357.32
426.00	369.80
427.00	382.29
428.00	401.01
429.00	381.51
430.00	344.84
431.00	354.20
432.00	384.63
433.00	400.23
434.00	398.67
435.00	374.49
436.00	401.79
437.00	409.59
438.00	419.74
439.00	394.77
440.00	361.22
441.00	376.83
442.00	371.36
443.00	399.45
444.00	423.64
445.00	437.68
446.00	416.62
447.00	386.19
448.00	372.93
449.00	387.75
450.00	365.12
451.00	353.42
452.00	368.24
453.00	412.71
454.00	419.74
455.00	399.45
456.00	390.87
457.00	401.01
458.00	405.69
459.00	379.17
460.00	369.80
461.00	362.78
462.00	361.22
463.00	374.49
464.00	371.36
465.00	401.79
466.00	404.91
467.00	397.89
468.00	387.75
469.00	381.51
470.00	393.99
471.00	388.53
472.00	369.02
473.00	372.93
474.00	378.39
475.00	379.95
476.00	386.97
477.00	375.27
478.00	411.15
479.00	404.13
480.00	440.02
481.00	428.32
482.00	432.22
483.00	402.57
484.00	396.33
485.00	380.73
486.00	404.91
487.00	388.53
488.00	418.18
489.00	406.47
490.00	443.14
491.00	436.90
492.00	419.74
493.00	397.11
494.00	397.89
495.00	415.84
496.00	419.74
497.00	411.93
498.00	397.11
499.00	405.69
500.00	431.44
501.00	444.70
502.00	427.54
503.00	404.91
504.00	415.06
505.00	424.42
506.00	422.86
507.00	422.08
508.00	452.50
509.00	458.74
510.00	470.45
511.00	461.87
512.00	487.61
513.00	465.77
514.00	437.68
515.00	404.91
516.00	395.55
517.00	415.84
518.00	425.20
519.00	410.37
520.00	386.97
521.00	354.98
522.00	379.95
523.00	381.51
524.00	403.35
525.00	376.83
526.00	377.61
527.00	372.93
528.00	397.89
529.00	406.47
530.00	427.54
531.00	420.52
532.00	425.20
533.00	418.18
534.00	406.47
535.00	408.03
536.00	404.91
537.00	421.30
538.00	411.15
539.00	415.84
540.00	426.76
541.00	409.59
542.00	395.55
543.00	393.21
544.00	397.11
545.00	390.09
546.00	363.56
547.00	372.93
548.00	386.19
549.00	402.57
550.00	419.74
551.00	409.59
552.00	385.41
553.00	388.53
554.00	413.49
555.00	449.38
556.00	422.86
557.00	411.15
558.00	390.87
559.00	419.74
560.00	415.06
561.00	415.06
562.00	393.99
563.00	394.77
564.00	403.35
565.00	401.79
566.00	400.23
567.00	390.87
568.00	370.58
569.00	362.00
570.00	372.15
571.00	418.18
572.00	423.64
573.00	415.06
574.00	417.40
575.00	418.18
576.00	405.69
577.00	376.83
578.00	374.49
579.00	374.49
580.00	379.17
581.00	383.85
582.00	403.35
583.00	420.52
584.00	414.27
585.00	422.08
586.00	429.88
587.00	429.88
588.00	408.03
589.00	390.09
590.00	408.03
591.00	422.08
592.00	399.45
593.00	394.77
594.00	384.63
595.00	393.99
596.00	390.87
597.00	386.19
598.00	397.11
599.00	372.93
600.00	379.17
601.00	379.95
602.00	386.97
603.00	396.33
604.00	390.87
605.00	390.87
606.00	393.99
607.00	386.97
608.00	398.67
609.00	374.49
610.00	390.87
611.00	387.75
612.00	401.01
613.00	394.77
614.00	388.53
615.00	412.71
616.00	428.32
617.00	452.50
618.00	418.18
619.00	400.23
620.00	374.49
621.00	367.46
622.00	362.00
623.00	365.12
624.00	398.67
625.00	427.54
626.00	442.36
627.00	409.59
628.00	393.21
629.00	383.85
630.00	431.44
631.00	428.32
632.00	440.02
633.00	422.08
634.00	476.69
635.00	534.42
636.00	624.14
637.00	656.13
638.00	672.51
639.00	669.39
640.00	636.63
641.00	570.31
642.00	496.19
643.00	454.06
644.00	437.68
645.00	421.30
646.00	401.79
647.00	422.08
648.00	393.99
649.00	400.23
650.00	391.65
651.00	424.42
652.00	436.90
653.00	422.08
654.00	445.48
655.00	447.82
656.00	433.78
657.00	385.41
658.00	369.80
659.00	382.29
660.00	393.99
661.00	380.73
662.00	416.62
663.00	422.86
664.00	446.26
665.00	418.96
666.00	424.42
667.00	425.98
668.00	392.43
669.00	401.79
670.00	404.91
671.00	426.76
672.00	422.08
673.00	445.48
674.00	468.11
675.00	460.31
676.00	420.52
677.00	431.44
678.00	436.12
679.00	457.96
680.00	452.50
681.00	452.50
682.00	446.26
683.00	428.32
684.00	411.93
685.00	403.35
686.00	385.41
687.00	376.05
688.00	361.22
689.00	397.89
690.00	418.18
691.00	427.54
692.00	419.74
693.00	413.49
694.00	412.71
695.00	414.27
696.00	415.06
697.00	397.11
698.00	379.95
699.00	369.02
700.00	383.85
701.00	411.15
702.00	408.81
703.00	410.37
704.00	387.75
705.00	409.59
706.00	435.34
707.00	443.14
708.00	433.00
709.00	405.69
710.00	397.11
711.00	379.95
712.00	377.61
713.00	386.19
714.00	398.67
715.00	411.15
716.00	416.62
717.00	439.24
718.00	485.27
719.00	469.67
720.00	482.15
721.00	432.22
722.00	429.10
723.00	412.71
724.00	409.59
725.00	420.52
726.00	415.84
727.00	424.42
728.00	410.37
729.00	421.30
730.00	407.25
731.00	428.32
732.00	400.23
733.00	399.45
734.00	405.69
735.00	419.74
736.00	418.96
737.00	396.33
738.00	387.75
739.00	375.27
740.00	386.97
741.00	402.57
742.00	393.99
743.00	392.43
744.00	379.95
745.00	415.06
746.00	397.11
747.00	401.79
748.00	393.21
749.00	379.95
750.00	379.17
751.00	389.31
752.00	418.18
753.00	422.08
754.00	418.18
755.00	420.52
756.00	415.84
757.00	422.08
758.00	413.49
759.00	418.18
760.00	397.11
761.00	406.47
762.00	404.13
763.00	434.56
764.00	443.14
765.00	442.36
766.00	425.98
767.00	396.33
768.00	393.21
769.00	382.29
770.00	412.71
771.00	440.80
772.00	440.02
773.00	414.27
774.00	383.07
775.00	378.39
776.00	364.34
777.00	376.83
778.00	391.65
779.00	426.76
780.00	388.53
781.00	389.31
782.00	390.87
783.00	490.73
784.00	489.95
785.00	468.11
786.00	396.33
787.00	401.79
788.00	398.67
789.00	397.11
790.00	386.97
791.00	390.87
792.00	390.87
793.00	400.23
794.00	408.03
795.00	401.01
796.00	395.55
797.00	369.02
798.00	384.63
799.00	394.77
800.00	416.62
801.00	403.35
802.00	386.19
803.00	373.71
804.00	369.80
805.00	394.77
806.00	404.91
807.00	414.27
808.00	395.55
809.00	398.67
810.00	406.47
811.00	393.21
812.00	395.55
813.00	396.33
814.00	420.52
815.00	423.64
816.00	404.91
817.00	388.53
818.00	405.69
819.00	408.03
820.00	425.20
821.00	421.30
822.00	426.76
823.00	415.84
824.00	369.02
825.00	398.67
826.00	418.18
827.00	447.04
828.00	436.90
829.00	422.86
830.00	427.54
831.00	399.45
832.00	390.87
833.00	381.51
834.00	390.87
835.00	389.31
836.00	389.31
837.00	418.18
838.00	411.93
839.00	418.96
840.00	399.45
841.00	429.10
842.00	429.88
843.00	394.77
844.00	381.51
845.00	364.34
846.00	381.51
847.00	367.46
848.00	380.73
849.00	393.99
850.00	400.23
851.00	402.57
852.00	397.11
853.00	393.21
854.00	371.36
855.00	371.36
856.00	365.12
857.00	370.58
858.00	392.43
859.00	409.59
860.00	435.34
861.00	397.89
862.00	398.67
863.00	391.65
864.00	421.30
865.00	425.98
866.00	432.22
867.00	421.30
868.00	409.59
869.00	404.91
870.00	399.45
871.00	400.23
872.00	384.63
873.00	393.99
874.00	405.69
875.00	415.06
876.00	408.03
877.00	421.30
878.00	447.82
879.00	422.86
880.00	415.06
881.00	397.11
882.00	426.76
883.00	408.81
884.00	393.99
885.00	390.87
886.00	387.75
887.00	374.49
888.00	365.90
889.00	376.83
890.00	371.36
891.00	390.09
892.00	402.57
893.00	440.02
894.00	429.10
895.00	415.06
896.00	414.27
897.00	397.89
898.00	376.05
899.00	365.12
900.00	405.69
901.00	428.32
902.00	430.66
903.00	411.93
904.00	393.99
905.00	405.69
906.00	397.11
907.00	408.03
908.00	393.21
909.00	738.83
910.00	745.85
911.00	709.96
912.00	379.17
913.00	380.73
914.00	431.44
915.00	411.93
916.00	419.74
917.00	411.93
918.00	436.90
919.00	424.42
920.00	418.96
921.00	423.64
922.00	425.20
923.00	403.35
924.00	387.75
925.00	404.91
926.00	442.36
927.00	464.99
928.00	429.10
929.00	417.40
930.00	385.41
931.00	399.45
932.00	398.67
933.00	411.93
934.00	407.25
935.00	405.69
936.00	397.89
937.00	415.06
938.00	399.45
939.00	399.45
940.00	396.33
941.00	400.23
942.00	406.47
943.00	404.13
944.00	431.44
945.00	441.58
946.00	448.60
947.00	457.96
948.00	428.32
949.00	418.18
950.00	391.65
951.00	395.55
952.00	388.53
953.00	382.29
954.00	373.71
955.00	383.85
956.00	389.31
957.00	425.98
958.00	447.82
959.00	435.34
960.00	427.54
961.00	416.62
962.00	415.06
963.00	415.84
964.00	390.87
965.00	379.17
966.00	375.27
967.00	393.99
968.00	415.06
969.00	427.54
970.00	406.47
971.00	417.40
972.00	370.58
973.00	382.29
974.00	386.19
975.00	418.96
976.00	426.76
977.00	409.59
978.00	408.03
979.00	409.59
980.00	415.84
981.00	418.18
982.00	407.25
983.00	415.06
984.00	413.49
985.00	403.35
986.00	387.75
987.00	374.49
988.00	377.61
989.00	408.03
990.00	420.52
991.00	427.54
992.00	378.39
993.00	354.98
994.00	374.49
995.00	390.09
996.00	436.90
997.00	416.62
998.00	410.37
999.00	393.21
1000.00	391.65
1001.00	397.11
1002.00	382.29
1003.00	380.73
1004.00	408.03
1005.00	404.13
1006.00	417.40
1007.00	401.79
1008.00	408.81
1009.00	422.86
1010.00	445.48
1011.00	461.87
1012.00	436.12
1013.00	416.62
1014.00	396.33
1015.00	409.59
1016.00	404.13
1017.00	433.00
1018.00	402.57
1019.00	422.08
1020.00	408.81
1021.00	415.06
1022.00	411.93
1023.00	406.47
1024.00	426.76
1025.00	431.44
1026.00	415.84
1027.00	418.18
1028.00	395.55
1029.00	394.77
1030.00	393.21
1031.00	414.27
1032.00	429.88
1033.00	433.78
1034.00	416.62
1035.00	430.66
1036.00	435.34
1037.00	425.98
1038.00	401.79
1039.00	396.33
1040.00	415.06
1041.00	425.98
1042.00	433.00
1043.00	422.86
1044.00	434.56
1045.00	468.11
1046.00	476.69
1047.00	489.17
1048.00	425.98
1049.00	424.42
1050.00	403.35
1051.00	412.71
1052.00	404.13
1053.00	378.39
1054.00	362.78
1055.00	348.74
1056.00	355.76
1057.00	390.87
1058.00	410.37
1059.00	408.03
1060.00	383.07
1061.00	395.55
1062.00	378.39
1063.00	386.19
1064.00	369.02
1065.00	411.93
1066.00	404.13
1067.00	421.30
1068.00	427.54
1069.00	439.24
1070.00	407.25
1071.00	370.58
1072.00	369.80
1073.00	365.90
1074.00	380.73
1075.00	397.11
1076.00	397.89
1077.00	408.03
1078.00	376.05
1079.00	406.47
1080.00	397.11
1081.00	425.20
1082.00	430.66
1083.00	419.74
1084.00	403.35
1085.00	378.39
1086.00	388.53
1087.00	391.65
1088.00	394.77
1089.00	379.95
1090.00	365.12
1091.00	352.64
1092.00	389.31
1093.00	414.27
1094.00	425.98
1095.00	411.93
1096.00	404.13
1097.00	415.06
1098.00	397.11
1099.00	372.15
1100.00	384.63
1101.00	377.61
1102.00	383.85
1103.00	377.61
1104.00	386.19
1105.00	405.69
1106.00	394.77
1107.00	425.98
1108.00	415.06
1109.00	408.03
1110.00	397.11
1111.00	404.13
1112.00	438.46
1113.00	421.30
1114.00	426.76
1115.00	402.57
1116.00	417.40
1117.00	402.57
1118.00	393.21
1119.00	388.53
1120.00	397.11
1121.00	418.18
1122.00	436.90
1123.00	430.66
1124.00	412.71
1125.00	391.65
1126.00	393.99
1127.00	386.97
1128.00	373.71
1129.00	386.19
1130.00	418.18
1131.00	443.92
1132.00	425.20
1133.00	379.17
1134.00	367.46
1135.00	350.30
1136.00	387.75
1137.00	399.45
1138.00	407.25
1139.00	404.13
1140.00	400.23
1141.00	434.56
1142.00	421.30
1143.00	415.84
1144.00	427.54
1145.00	433.00
1146.00	454.84
1147.00	442.36
1148.00	454.06
1149.00	432.22
1150.00	438.46
1151.00	446.26
1152.00	452.50
1153.00	449.38
1154.00	433.78
1155.00	387.75
1156.00	362.78
1157.00	364.34
1158.00	404.91
1159.00	409.59
1160.00	413.49
1161.00	401.79
1162.00	429.10
1163.00	419.74
1164.00	430.66
1165.00	403.35
1166.00	408.03
1167.00	384.63
1168.00	375.27
1169.00	363.56
1170.00	389.31
1171.00	420.52
1172.00	443.92
1173.00	464.21
1174.00	472.01
1175.00	483.71
1176.00	484.49
1177.00	457.18
1178.00	419.74
1179.00	406.47
1180.00	416.62
1181.00	436.12
1182.00	436.12
1183.00	446.26
1184.00	465.77
1185.00	458.75
1186.00	441.58
1187.00	424.42
1188.00	410.37
1189.00	428.32
1190.00	421.30
1191.00	436.90
1192.00	402.57
1193.00	432.22
1194.00	442.36
1195.00	464.21
1196.00	448.60
1197.00	431.44
1198.00	422.86
1199.00	394.77
1200.00	409.59
1201.00	411.93
1202.00	436.12
1203.00	431.44
1204.00	434.56
1205.00	420.52
1206.00	405.69
1207.00	392.43
1208.00	408.81
1209.00	418.96
1210.00	432.22
1211.00	422.08
1212.00	419.74
1213.00	408.03
1214.00	411.15
1215.00	422.08
1216.00	419.74
1217.00	412.71
1218.00	406.47
1219.00	419.74
1220.00	438.46
1221.00	424.42
1222.00	417.40
1223.00	418.18
1224.00	418.96
1225.00	409.59
1226.00	362.00
1227.00	367.46
1228.00	386.19
1229.00	401.01
1230.00	411.93
1231.00	401.79
1232.00	398.67
1233.00	411.93
1234.00	411.93
1235.00	444.70
1236.00	434.56
1237.00	435.34
1238.00	408.03
1239.00	392.43
1240.00	391.65
1241.00	383.07
1242.00	369.02
1243.00	377.61
1244.00	380.73
1245.00	418.96
1246.00	411.15
1247.00	393.99
1248.00	386.19
1249.00	389.31
1250.00	411.15
1251.00	399.45
1252.00	393.21
1253.00	406.47
1254.00	391.65
1255.00	390.09
1256.00	382.29
1257.00	382.29
1258.00	372.15
1259.00	369.02
1260.00	397.89
1261.00	411.93
1262.00	414.27
1263.00	368.24
1264.00	369.02
1265.00	375.27
1266.00	442.36
1267.00	468.11
1268.00	450.94
1269.00	432.22
1270.00	407.25
1271.00	403.35
1272.00	404.13
1273.00	425.20
1274.00	461.09
1275.00	447.82
1276.00	437.68
1277.00	423.64
1278.00	419.74
1279.00	414.27
1280.00	425.98
1281.00	451.72
1282.00	451.72
1283.00	447.82
1284.00	439.24
1285.00	438.46
1286.00	423.64
1287.00	432.22
1288.00	440.02
1289.00	472.01
1290.00	468.89
1291.00	466.55
1292.00	429.88
1293.00	396.33
1294.00	401.01
1295.00	405.69
1296.00	425.98
1297.00	418.18
1298.00	436.12
1299.00	417.40
1300.00	426.76
1301.00	410.37
1302.00	428.32
1303.00	425.98
1304.00	436.90
1305.00	415.84
1306.00	415.06
1307.00	404.91
1308.00	398.67
1309.00	400.23
1310.00	392.43
1311.00	403.35
1312.00	410.37
1313.00	422.86
1314.00	433.78
1315.00	419.74
1316.00	413.49
1317.00	414.27
1318.00	415.06
1319.00	438.46
1320.00	414.27
1321.00	409.59
1322.00	378.39
1323.00	382.29
1324.00	401.01
1325.00	415.06
1326.00	418.96
1327.00	397.11
1328.00	401.79
1329.00	406.47
1330.00	402.57
1331.00	433.00
1332.00	443.14
1333.00	450.94
1334.00	411.93
1335.00	404.13
1336.00	445.48
1337.00	459.53
1338.00	464.21
1339.00	424.42
1340.00	377.61
1341.00	376.05
1342.00	353.42
1343.00	365.90
1344.00	355.76
1345.00	385.41
1346.00	397.11
1347.00	390.09
1348.00	379.17
1349.00	390.09
1350.00	411.93
1351.00	428.32
1352.00	426.76
1353.00	422.08
1354.00	404.13
1355.00	390.87
1356.00	402.57
1357.00	402.57
1358.00	389.31
1359.00	373.71
1360.00	391.65
1361.00	410.37
1362.00	415.06
1363.00	408.03
1364.00	413.49
1365.00	434.56
1366.00	430.66
1367.00	448.60
1368.00	457.18
1369.00	471.23
1370.00	447.82
1371.00	431.44
1372.00	409.59
1373.00	429.10
1374.00	402.57
1375.00	398.67
1376.00	389.31
1377.00	392.43
1378.00	419.74
1379.00	418.96
1380.00	425.20
1381.00	401.79
1382.00	405.69
1383.00	406.47
1384.00	398.67
1385.00	395.55
1386.00	379.95
1387.00	372.93
1388.00	364.34
1389.00	376.05
1390.00	400.23
1391.00	396.33
1392.00	447.04
1393.00	425.98
1394.00	433.00
1395.00	400.23
1396.00	415.84
1397.00	432.22
1398.00	410.37
1399.00	422.86
1400.00	404.13
1401.00	430.66
1402.00	438.46
1403.00	437.68
1404.00	436.90
1405.00	422.86
1406.00	419.74
1407.00	397.89
1408.00	381.51
1409.00	381.51
1410.00	401.01
1411.00	399.45
1412.00	418.96
1413.00	415.84
1414.00	436.90
1415.00	408.81
1416.00	382.29
1417.00	346.40
1418.00	349.52
1419.00	358.10
1420.00	404.13
1421.00	415.84
1422.00	422.86
1423.00	393.21
1424.00	388.53
1425.00	390.09
1426.00	394.77
1427.00	405.69
1428.00	390.87
1429.00	365.12
1430.00	379.95
1431.00	406.47
1432.00	442.36
1433.00	420.52
1434.00	407.25
1435.00	403.35
1436.00	419.74
1437.00	414.27
1438.00	410.37
1439.00	390.87
1440.00	414.27
1441.00	437.68
1442.00	450.94
1443.00	448.60
1444.00	427.54
1445.00	430.66
1446.00	425.20
1447.00	420.52
1448.00	419.74
1449.00	429.88
1450.00	436.12
1451.00	395.55
1452.00	365.90
1453.00	368.24
1454.00	401.01
1455.00	402.57
1456.00	394.77
1457.00	376.83
1458.00	426.76
1459.00	420.52
1460.00	457.96
1461.00	410.37
1462.00	434.56
1463.00	410.37
1464.00	422.08
1465.00	437.68
1466.00	429.88
1467.00	422.08
1468.00	377.61
1469.00	401.79
1470.00	395.55
1471.00	399.45
1472.00	365.90
1473.00	389.31
1474.00	401.01
1475.00	408.03
1476.00	364.34
1477.00	367.46
1478.00	383.85
1479.00	413.49
1480.00	382.29
1481.00	372.93
1482.00	370.58
1483.00	399.45
1484.00	382.29
1485.00	383.07
1486.00	356.54
1487.00	371.36
1488.00	384.63
1489.00	408.03
1490.00	393.21
1491.00	366.68
1492.00	374.49
1493.00	393.21
1494.00	400.23
1495.00	405.69
1496.00	420.52
1497.00	436.12
1498.00	433.78
1499.00	418.18
1500.00	406.47
1501.00	390.87
1502.00	363.56
1503.00	360.44
1504.00	369.80
1505.00	390.87
1506.00	393.99
1507.00	369.02
1508.00	390.09
1509.00	403.35
1510.00	426.76
1511.00	418.96
1512.00	400.23
1513.00	402.57
1514.00	392.43
1515.00	410.37
1516.00	400.23
1517.00	408.81
1518.00	401.01
1519.00	384.63
1520.00	369.02
1521.00	347.96
1522.00	381.51
1523.00	372.15
1524.00	386.97
1525.00	352.64
1526.00	374.49
1527.00	393.99
1528.00	411.93
1529.00	402.57
1530.00	395.55
1531.00	403.35
1532.00	425.20
1533.00	427.54
1534.00	420.52
1535.00	405.69
1536.00	401.79
1537.00	404.13
1538.00	391.65
1539.00	377.61
1540.00	369.80
1541.00	377.61
1542.00	393.21
1543.00	383.07
1544.00	362.78
1545.00	327.68
1546.00	354.98
1547.00	370.58
1548.00	383.07
1549.00	372.15
1550.00	366.68
1551.00	386.19
1552.00	380.73
1553.00	405.69
1554.00	406.47
1555.00	409.59
1556.00	402.57
1557.00	390.09
1558.00	386.19
1559.00	383.07
1560.00	388.53
1561.00	376.83
1562.00	401.79
1563.00	390.09
1564.00	408.81
1565.00	387.75
1566.00	392.43
1567.00	395.55
1568.00	401.79
1569.00	409.59
1570.00	383.07
1571.00	366.68
1572.00	340.94
1573.00	364.34
1574.00	372.93
1575.00	390.87
1576.00	383.85
1577.00	397.89
1578.00	413.49
1579.00	439.24
1580.00	448.60
1581.00	444.70
1582.00	419.74
1583.00	391.65
1584.00	362.78
1585.00	369.02
1586.00	369.02
1587.00	388.53
1588.00	375.27
1589.00	356.54
1590.00	348.74
1591.00	369.02
1592.00	390.09
1593.00	383.07
1594.00	364.34
1595.00	344.84
1596.00	371.36
1597.00	391.65
1598.00	390.87
1599.00	397.11
1600.00	370.58
1601.00	386.19
1602.00	362.78
1603.00	392.43
1604.00	391.65
1605.00	433.78
1606.00	410.37
1607.00	435.34
1608.00	383.85
1609.00	411.15
1610.00	391.65
1611.00	402.57
1612.00	374.49
1613.00	378.39
1614.00	372.15
1615.00	376.83
1616.00	392.43
1617.00	402.57
1618.00	404.91
1619.00	373.71
1620.00	384.63
1621.00	401.79
1622.00	422.08
1623.00	409.59
1624.00	425.98
1625.00	422.08
1626.00	393.99
1627.00	358.10
1628.00	356.54
1629.00	390.87
1630.00	397.11
1631.00	385.41
1632.00	387.75
1633.00	369.02
1634.00	361.22
1635.00	361.22
1636.00	379.95
1637.00	400.23
1638.00	407.25
1639.00	414.27
1640.00	395.55
1641.00	394.77
1642.00	403.35
1643.00	421.30
1644.00	424.42
1645.00	397.89
1646.00	391.65
1647.00	365.12
1648.00	366.68
1649.00	384.63
1650.00	385.41
1651.00	405.69
1652.00	384.63
1653.00	372.93
1654.00	336.26
1655.00	338.60
1656.00	373.71
1657.00	390.09
1658.00	383.07
1659.00	360.44
1660.00	365.90
1661.00	372.15
1662.00	379.17
1663.00	403.35
1664.00	429.88
1665.00	424.42
1666.00	408.81
1667.00	400.23
1668.00	403.35
1669.00	396.33
1670.00	363.56
1671.00	374.49
1672.00	393.21
1673.00	406.47
1674.00	413.49
1675.00	397.89
1676.00	411.15
1677.00	402.57
1678.00	360.44
1679.00	351.86
1680.00	364.34
1681.00	415.06
1682.00	414.27
1683.00	400.23
1684.00	417.40
1685.00	532.86
1686.00	716.20
1687.00	971.32
1688.00	1274.03
1689.00	1545.53
1690.00	1711.71
1691.00	1719.51
1692.00	1566.60
1693.00	1323.96
1694.00	1009.55
1695.00	766.14
1696.00	589.81
1697.00	512.58
1698.00	467.33
1699.00	445.48
1700.00	414.27
1701.00	393.21
1702.00	398.67
1703.00	398.67
1704.00	420.52
1705.00	381.51
1706.00	394.77
1707.00	382.29
1708.00	400.23
1709.00	378.39
1710.00	372.15
1711.00	400.23
1712.00	406.47
1713.00	408.81
1714.00	380.73
1715.00	369.02
1716.00	366.68
1717.00	383.07
1718.00	422.08
1719.00	419.74
1720.00	405.69
1721.00	390.87
1722.00	404.91
1723.00	406.47
1724.00	401.01
1725.00	384.63
1726.00	388.53
1727.00	384.63
1728.00	379.17
1729.00	369.02
1730.00	379.17
1731.00	401.79
1732.00	408.03
1733.00	411.93
1734.00	408.03
1735.00	433.78
1736.00	424.42
1737.00	424.42
1738.00	398.67
1739.00	375.27
1740.00	379.95
1741.00	382.29
1742.00	389.31
1743.00	379.17
1744.00	379.95
1745.00	372.93
1746.00	369.80
1747.00	366.68
1748.00	380.73
1749.00	379.17
1750.00	400.23
1751.00	398.67
1752.00	417.40
1753.00	404.13
1754.00	419.74
1755.00	418.96
1756.00	417.40
1757.00	392.43
1758.00	378.39
1759.00	381.51
1760.00	388.53
1761.00	389.31
1762.00	388.53
1763.00	421.30
1764.00	439.24
1765.00	426.76
1766.00	411.15
1767.00	397.89
1768.00	419.74
1769.00	418.96
1770.00	408.81
1771.00	411.15
1772.00	422.08
1773.00	434.56
1774.00	434.56
1775.00	423.64
1776.00	418.96
1777.00	387.75
1778.00	378.39
1779.00	379.95
1780.00	385.41
1781.00	381.51
1782.00	395.55
1783.00	435.34
1784.00	447.04
1785.00	440.80
1786.00	398.67
1787.00	374.49
1788.00	368.24
1789.00	404.91
1790.00	411.15
1791.00	408.03
1792.00	384.63
1793.00	402.57
1794.00	393.21
1795.00	385.41
1796.00	394.77
1797.00	393.21
1798.00	415.84
1799.00	432.22
1800.00	442.36
1801.00	443.14
1802.00	442.36
1803.00	451.72
1804.00	413.49
1805.00	402.57
1806.00	386.19
1807.00	405.69
1808.00	384.63
1809.00	401.01
1810.00	410.37
1811.00	401.01
1812.00	425.20
1813.00	406.47
1814.00	409.59
1815.00	383.85
1816.00	387.75
1817.00	390.09
1818.00	389.31
1819.00	394.77
1820.00	390.09
1821.00	359.66
1822.00	358.10
1823.00	384.63
1824.00	387.75
1825.00	386.19
1826.00	340.16
1827.00	369.80
1828.00	394.77
1829.00	431.44
1830.00	424.42
1831.00	411.15
1832.00	416.62
1833.00	422.08
1834.00	421.30
1835.00	418.18
1836.00	404.13
1837.00	415.06
1838.00	418.96
1839.00	415.84
1840.00	384.63
1841.00	361.22
1842.00	388.53
1843.00	425.20
1844.00	440.80
1845.00	423.64
1846.00	384.63
1847.00	377.61
1848.00	362.00
1849.00	379.17
1850.00	353.42
1851.00	351.86
1852.00	357.32
1853.00	369.02
1854.00	397.89
1855.00	375.27
1856.00	402.57
1857.00	386.97
1858.00	402.57
1859.00	390.09
1860.00	401.79
1861.00	436.12
1862.00	431.44
1863.00	442.36
1864.00	403.35
1865.00	391.65
1866.00	362.78
1867.00	351.08
1868.00	381.51
1869.00	378.39
1870.00	392.43
1871.00	359.66
1872.00	350.30
1873.00	351.08
1874.00	361.22
1875.00	368.24
1876.00	379.95
1877.00	380.73
1878.00	383.07
1879.00	374.49
1880.00	399.45
1881.00	408.81
1882.00	412.71
1883.00	371.36
1884.00	394.77
1885.00	417.40
1886.00	451.72
1887.00	443.14
1888.00	418.18
1889.00	411.15
1890.00	404.91
1891.00	417.40
1892.00	422.08
1893.00	406.47
1894.00	379.17
1895.00	382.29
1896.00	407.25
1897.00	409.59
1898.00	415.06
1899.00	425.20
1900.00	450.94
1901.00	436.90
1902.00	391.65
1903.00	390.87
1904.00	384.63
1905.00	383.07
1906.00	369.80
1907.00	357.32
1908.00	393.21
1909.00	398.67
1910.00	413.49
1911.00	383.07
1912.00	365.12
1913.00	359.66
1914.00	373.71
1915.00	390.87
1916.00	371.36
1917.00	401.79
1918.00	399.45
1919.00	441.58
1920.00	392.43
1921.00	351.08
1922.00	327.68
1923.00	351.86
1924.00	376.05
1925.00	378.39
1926.00	360.44
1927.00	365.90
1928.00	358.10
1929.00	378.39
1930.00	376.05
1931.00	391.65
1932.00	389.31
1933.00	404.13
1934.00	401.01
1935.00	389.31
1936.00	409.59
1937.00	420.52
1938.00	415.06
1939.00	412.71
1940.00	408.03
1941.00	408.81
1942.00	379.17
1943.00	354.20
1944.00	369.80
1945.00	373.71
1946.00	393.99
1947.00	377.61
1948.00	401.79
1949.00	425.20
1950.00	443.14
1951.00	440.02
1952.00	411.15
1953.00	373.71
1954.00	350.30
1955.00	338.60
1956.00	373.71
1957.00	365.12
1958.00	351.08
1959.00	340.16
1960.00	351.08
1961.00	376.83
1962.00	390.09
1963.00	399.45
1964.00	394.77
1965.00	383.85
1966.00	370.58
1967.00	388.53
1968.00	373.71
1969.00	378.39
1970.00	362.78
1971.00	386.19
1972.00	398.67
1973.00	402.57
1974.00	420.52
1975.00	402.57
1976.00	402.57
1977.00	373.71
1978.00	384.63
1979.00	369.80
1980.00	378.39
1981.00	377.61
1982.00	425.20
1983.00	409.59
1984.00	433.78
1985.00	404.13
1986.00	418.96
1987.00	408.81
1988.00	421.30
1989.00	422.08
1990.00	401.79
1991.00	394.77
1992.00	395.55
1993.00	390.87
1994.00	407.25
1995.00	383.85
1996.00	381.51
1997.00	330.02
1998.00	372.93
1999.00	389.31
2000.00	404.91
2001.00	408.81
2002.00	425.20
2003.00	430.66
2004.00	393.99
2005.00	351.86
2006.00	347.96
2007.00	360.44
2008.00	367.46
2009.00	383.85
2010.00	362.00
2011.00	371.36
2012.00	356.54
2013.00	386.19
2014.00	397.11
2015.00	400.23
2016.00	387.75
2017.00	362.78
2018.00	352.64
2019.00	343.28
2020.00	347.18
2021.00	347.18
2022.00	356.54
2023.00	361.22
2024.00	365.90
2025.00	358.10
2026.00	351.86
2027.00	362.00
2028.00	381.51
2029.00	390.09
2030.00	378.39
2031.00	374.49
2032.00	373.71
2033.00	417.40
2034.00	410.37
2035.00	429.10
2036.00	410.37
2037.00	422.08
2038.00	405.69
2039.00	386.19
2040.00	376.83
2041.00	360.44
2042.00	369.02
2043.00	365.12
2044.00	384.63
2045.00	383.07
2046.00	372.15
2047.00	348.74
>>>>>End Processed Spectral Data<<<<<
