SpectraSuite Data File
++++++++++++++++++++++++++++++++++++
Date: Thu Nov 16 14:27:18 EST 2017
User: cheriyan
Dark Spectrum Present: No
Reference Spectrum Present: No
Number of Sampled Component Spectra: 1
Spectrometers: USB2+H05261
Integration Time (usec): 100000 (USB2+H05261)
Spectra Averaged: 1 (USB2+H05261)
Boxcar Smoothing: 1 (USB2+H05261)
Correct for Electrical Dark: No (USB2+H05261)
Strobe/Lamp Enabled: No (USB2+H05261)
Correct for Detector Non-linearity: No (USB2+H05261)
Correct for Stray Light: No (USB2+H05261)
Number of Pixels in Processed Spectrum: 2048
>>>>>Begin Processed Spectral Data<<<<<
0.00	280.86
1.00	280.86
2.00	284.77
3.00	278.52
4.00	270.72
5.00	272.28
6.00	249.66
7.00	234.83
8.00	212.99
9.00	220.79
10.00	222.35
11.00	225.47
12.00	241.86
13.00	213.77
14.00	188.80
15.00	184.90
16.00	220.01
17.00	247.32
18.00	255.90
19.00	262.14
20.00	272.28
21.00	278.52
22.00	302.71
23.00	306.61
24.00	300.37
25.00	316.75
26.00	312.85
27.00	352.64
28.00	345.62
29.00	384.63
30.00	372.15
31.00	358.10
32.00	357.32
33.00	368.24
34.00	384.63
35.00	387.75
36.00	372.15
37.00	376.05
38.00	368.24
39.00	378.39
40.00	393.99
41.00	429.10
42.00	434.56
43.00	396.33
44.00	369.80
45.00	376.83
46.00	406.47
47.00	402.57
48.00	406.47
49.00	399.45
50.00	379.95
51.00	375.27
52.00	406.47
53.00	441.58
54.00	447.82
55.00	425.20
56.00	384.63
57.00	366.68
58.00	364.34
59.00	392.43
60.00	400.23
61.00	386.97
62.00	373.71
63.00	376.83
64.00	388.53
65.00	408.03
66.00	403.35
67.00	424.42
68.00	408.03
69.00	404.13
70.00	411.15
71.00	444.70
72.00	429.10
73.00	384.63
74.00	370.58
75.00	395.55
76.00	399.45
77.00	386.19
78.00	359.66
79.00	358.10
80.00	353.42
81.00	378.39
82.00	376.83
83.00	388.53
84.00	372.15
85.00	376.05
86.00	342.50
87.00	361.22
88.00	389.31
89.00	418.96
90.00	413.49
91.00	408.03
92.00	407.25
93.00	393.99
94.00	376.05
95.00	350.30
96.00	377.61
97.00	389.31
98.00	422.08
99.00	412.71
100.00	420.52
101.00	414.27
102.00	388.53
103.00	380.73
104.00	388.53
105.00	415.84
106.00	407.25
107.00	396.33
108.00	390.09
109.00	365.12
110.00	358.10
111.00	357.32
112.00	384.63
113.00	395.55
114.00	386.97
115.00	404.91
116.00	405.69
117.00	408.81
118.00	381.51
119.00	352.64
120.00	354.98
121.00	376.83
122.00	393.99
123.00	413.49
124.00	416.62
125.00	425.20
126.00	390.87
127.00	366.68
128.00	365.12
129.00	402.57
130.00	407.25
131.00	409.59
132.00	379.17
133.00	384.63
134.00	387.75
135.00	389.31
136.00	394.77
137.00	384.63
138.00	392.43
139.00	375.27
140.00	382.29
141.00	369.02
142.00	389.31
143.00	363.56
144.00	360.44
145.00	341.72
146.00	340.16
147.00	363.56
148.00	402.57
149.00	415.84
150.00	427.54
151.00	428.32
152.00	455.62
153.00	432.22
154.00	425.98
155.00	419.74
156.00	407.25
157.00	354.98
158.00	354.20
159.00	387.75
160.00	408.81
161.00	387.75
162.00	379.17
163.00	385.41
164.00	388.53
165.00	376.05
166.00	372.93
167.00	377.61
168.00	377.61
169.00	375.27
170.00	365.12
171.00	357.32
172.00	385.41
173.00	396.33
174.00	413.49
175.00	399.45
176.00	408.03
177.00	416.62
178.00	414.27
179.00	428.32
180.00	423.64
181.00	410.37
182.00	378.39
183.00	376.83
184.00	388.53
185.00	389.31
186.00	396.33
187.00	401.01
188.00	405.69
189.00	372.93
190.00	361.22
191.00	354.98
192.00	360.44
193.00	369.80
194.00	373.71
195.00	389.31
196.00	403.35
197.00	417.40
198.00	415.84
199.00	410.37
200.00	393.21
201.00	404.91
202.00	361.22
203.00	369.80
204.00	384.63
205.00	425.20
206.00	426.76
207.00	402.57
208.00	382.29
209.00	383.07
210.00	394.77
211.00	379.17
212.00	374.49
213.00	356.54
214.00	375.27
215.00	376.05
216.00	401.01
217.00	408.81
218.00	410.37
219.00	382.29
220.00	398.67
221.00	406.47
222.00	410.37
223.00	379.17
224.00	371.36
225.00	370.58
226.00	373.71
227.00	399.45
228.00	404.13
229.00	403.35
230.00	357.32
231.00	325.33
232.00	311.29
233.00	303.49
234.00	341.72
235.00	363.56
236.00	383.85
237.00	383.07
238.00	397.11
239.00	402.57
240.00	376.83
241.00	367.46
242.00	383.85
243.00	411.93
244.00	416.62
245.00	417.40
246.00	384.63
247.00	380.73
248.00	372.15
249.00	414.27
250.00	415.06
251.00	407.25
252.00	411.15
253.00	413.49
254.00	422.08
255.00	422.08
256.00	411.93
257.00	413.49
258.00	386.19
259.00	394.77
260.00	393.21
261.00	373.71
262.00	379.95
263.00	388.53
264.00	403.35
265.00	399.45
266.00	388.53
267.00	386.97
268.00	388.53
269.00	385.41
270.00	397.89
271.00	402.57
272.00	401.79
273.00	405.69
274.00	368.24
275.00	365.90
276.00	383.07
277.00	418.96
278.00	427.54
279.00	413.49
280.00	407.25
281.00	399.45
282.00	379.95
283.00	379.17
284.00	403.35
285.00	432.22
286.00	436.12
287.00	440.80
288.00	408.03
289.00	404.91
290.00	362.78
291.00	384.63
292.00	369.02
293.00	347.18
294.00	346.40
295.00	346.40
296.00	388.53
297.00	369.02
298.00	366.68
299.00	356.54
300.00	389.31
301.00	423.64
302.00	431.44
303.00	396.33
304.00	364.34
305.00	353.42
306.00	368.24
307.00	374.49
308.00	403.35
309.00	394.77
310.00	382.29
311.00	364.34
312.00	386.19
313.00	395.55
314.00	379.95
315.00	378.39
316.00	397.89
317.00	404.91
318.00	374.49
319.00	388.53
320.00	390.87
321.00	418.96
322.00	393.99
323.00	396.33
324.00	366.68
325.00	347.96
326.00	330.80
327.00	366.68
328.00	371.36
329.00	407.25
330.00	394.77
331.00	392.43
332.00	379.17
333.00	365.90
334.00	361.22
335.00	351.08
336.00	368.24
337.00	381.51
338.00	374.49
339.00	358.88
340.00	362.78
341.00	379.17
342.00	370.58
343.00	389.31
344.00	408.81
345.00	436.90
346.00	444.70
347.00	422.86
348.00	403.35
349.00	355.76
350.00	365.90
351.00	372.93
352.00	408.81
353.00	418.18
354.00	422.08
355.00	403.35
356.00	372.93
357.00	386.97
358.00	376.83
359.00	393.21
360.00	404.91
361.00	426.76
362.00	420.52
363.00	391.65
364.00	393.99
365.00	390.09
366.00	399.45
367.00	397.11
368.00	422.08
369.00	403.35
370.00	396.33
371.00	379.17
372.00	378.39
373.00	386.97
374.00	388.53
375.00	393.21
376.00	395.55
377.00	373.71
378.00	365.90
379.00	356.54
380.00	344.06
381.00	340.94
382.00	353.42
383.00	380.73
384.00	386.97
385.00	385.41
386.00	393.99
387.00	431.44
388.00	401.79
389.00	395.55
390.00	378.39
391.00	412.71
392.00	430.66
393.00	420.52
394.00	392.43
395.00	388.53
396.00	422.08
397.00	450.94
398.00	435.34
399.00	403.35
400.00	391.65
401.00	387.75
402.00	383.07
403.00	381.51
404.00	402.57
405.00	384.63
406.00	393.21
407.00	374.49
408.00	390.87
409.00	393.21
410.00	409.59
411.00	417.40
412.00	408.81
413.00	404.91
414.00	427.54
415.00	440.02
416.00	428.32
417.00	385.41
418.00	385.41
419.00	409.59
420.00	414.27
421.00	421.30
422.00	378.39
423.00	397.11
424.00	401.79
425.00	444.70
426.00	410.37
427.00	383.85
428.00	370.58
429.00	407.25
430.00	388.53
431.00	364.34
432.00	356.54
433.00	374.49
434.00	376.05
435.00	362.00
436.00	369.02
437.00	398.67
438.00	428.32
439.00	411.93
440.00	408.81
441.00	398.67
442.00	406.47
443.00	381.51
444.00	383.07
445.00	372.93
446.00	381.51
447.00	370.58
448.00	365.12
449.00	371.36
450.00	376.05
451.00	385.41
452.00	386.97
453.00	389.31
454.00	393.99
455.00	400.23
456.00	400.23
457.00	396.33
458.00	365.12
459.00	357.32
460.00	361.22
461.00	394.77
462.00	396.33
463.00	408.03
464.00	386.19
465.00	387.75
466.00	389.31
467.00	401.79
468.00	424.42
469.00	425.98
470.00	445.48
471.00	422.08
472.00	417.40
473.00	394.77
474.00	413.49
475.00	391.65
476.00	391.65
477.00	371.36
478.00	401.01
479.00	414.27
480.00	426.76
481.00	436.90
482.00	422.08
483.00	420.52
484.00	411.15
485.00	405.69
486.00	398.67
487.00	355.76
488.00	365.90
489.00	373.71
490.00	397.11
491.00	399.45
492.00	397.11
493.00	405.69
494.00	425.20
495.00	424.42
496.00	390.09
497.00	379.95
498.00	377.61
499.00	411.15
500.00	399.45
501.00	405.69
502.00	389.31
503.00	386.97
504.00	373.71
505.00	367.46
506.00	396.33
507.00	397.11
508.00	411.15
509.00	390.87
510.00	395.55
511.00	396.33
512.00	410.37
513.00	413.49
514.00	422.08
515.00	380.73
516.00	386.97
517.00	392.43
518.00	435.34
519.00	408.81
520.00	417.40
521.00	389.31
522.00	412.71
523.00	392.43
524.00	404.91
525.00	429.88
526.00	420.52
527.00	415.84
528.00	390.09
529.00	386.19
530.00	365.12
531.00	367.46
532.00	371.36
533.00	387.75
534.00	369.80
535.00	410.37
536.00	399.45
537.00	418.96
538.00	375.27
539.00	411.93
540.00	404.13
541.00	411.93
542.00	374.49
543.00	365.12
544.00	370.58
545.00	389.31
546.00	404.91
547.00	408.81
548.00	401.79
549.00	403.35
550.00	387.75
551.00	401.79
552.00	406.47
553.00	433.00
554.00	422.86
555.00	416.62
556.00	423.64
557.00	436.90
558.00	434.56
559.00	415.84
560.00	404.91
561.00	411.15
562.00	414.27
563.00	406.47
564.00	383.85
565.00	383.85
566.00	391.65
567.00	421.30
568.00	414.27
569.00	404.13
570.00	391.65
571.00	390.87
572.00	406.47
573.00	401.79
574.00	423.64
575.00	425.20
576.00	418.96
577.00	405.69
578.00	396.33
579.00	393.21
580.00	389.31
581.00	386.97
582.00	393.21
583.00	370.58
584.00	352.64
585.00	372.93
586.00	386.97
587.00	393.21
588.00	379.17
589.00	390.87
590.00	390.87
591.00	379.17
592.00	347.18
593.00	334.70
594.00	324.55
595.00	343.28
596.00	377.61
597.00	370.58
598.00	355.76
599.00	357.32
600.00	389.31
601.00	408.81
602.00	372.15
603.00	366.68
604.00	353.42
605.00	357.32
606.00	365.12
607.00	373.71
608.00	404.91
609.00	393.99
610.00	424.42
611.00	391.65
612.00	380.73
613.00	346.40
614.00	396.33
615.00	384.63
616.00	416.62
617.00	370.58
618.00	377.61
619.00	348.74
620.00	372.15
621.00	390.87
622.00	417.40
623.00	398.67
624.00	384.63
625.00	369.80
626.00	393.21
627.00	412.71
628.00	422.86
629.00	458.74
630.00	455.62
631.00	435.34
632.00	396.33
633.00	411.93
634.00	450.94
635.00	503.22
636.00	574.21
637.00	617.12
638.00	625.70
639.00	592.94
640.00	560.95
641.00	514.14
642.00	465.77
643.00	417.40
644.00	407.25
645.00	422.86
646.00	443.92
647.00	425.20
648.00	382.29
649.00	379.95
650.00	385.41
651.00	410.37
652.00	380.73
653.00	400.23
654.00	461.09
655.00	488.39
656.00	475.13
657.00	379.95
658.00	342.50
659.00	347.96
660.00	401.01
661.00	419.74
662.00	429.88
663.00	411.93
664.00	439.24
665.00	419.74
666.00	413.49
667.00	383.85
668.00	372.15
669.00	389.31
670.00	390.87
671.00	399.45
672.00	362.78
673.00	374.49
674.00	395.55
675.00	413.49
676.00	435.34
677.00	429.10
678.00	452.50
679.00	470.45
680.00	464.99
681.00	473.57
682.00	437.68
683.00	415.84
684.00	378.39
685.00	369.80
686.00	381.51
687.00	404.13
688.00	401.01
689.00	433.00
690.00	415.84
691.00	422.08
692.00	394.77
693.00	397.89
694.00	399.45
695.00	402.57
696.00	406.47
697.00	380.73
698.00	391.65
699.00	399.45
700.00	421.30
701.00	408.03
702.00	417.40
703.00	429.10
704.00	421.30
705.00	387.75
706.00	388.53
707.00	399.45
708.00	418.18
709.00	383.85
710.00	378.39
711.00	366.68
712.00	391.65
713.00	390.87
714.00	394.77
715.00	391.65
716.00	397.11
717.00	400.23
718.00	449.38
719.00	461.87
720.00	478.25
721.00	418.18
722.00	433.78
723.00	435.34
724.00	459.53
725.00	425.20
726.00	382.29
727.00	350.30
728.00	358.10
729.00	396.33
730.00	453.28
731.00	445.48
732.00	436.90
733.00	385.41
734.00	383.07
735.00	382.29
736.00	369.80
737.00	367.46
738.00	353.42
739.00	370.58
740.00	390.87
741.00	388.53
742.00	379.17
743.00	394.77
744.00	418.96
745.00	431.44
746.00	412.71
747.00	404.91
748.00	392.43
749.00	378.39
750.00	349.52
751.00	358.88
752.00	344.84
753.00	368.24
754.00	388.53
755.00	397.11
756.00	397.89
757.00	403.35
758.00	416.62
759.00	414.27
760.00	396.33
761.00	394.77
762.00	390.87
763.00	383.85
764.00	401.01
765.00	413.49
766.00	429.88
767.00	411.93
768.00	394.77
769.00	369.80
770.00	367.46
771.00	374.49
772.00	399.45
773.00	434.56
774.00	442.36
775.00	433.78
776.00	420.52
777.00	418.18
778.00	440.80
779.00	442.36
780.00	430.66
781.00	420.52
782.00	393.99
783.00	462.65
784.00	447.82
785.00	454.84
786.00	396.33
787.00	393.21
788.00	404.13
789.00	391.65
790.00	419.74
791.00	386.19
792.00	395.55
793.00	379.17
794.00	375.27
795.00	366.68
796.00	356.54
797.00	386.19
798.00	396.33
799.00	394.77
800.00	376.05
801.00	379.95
802.00	365.12
803.00	361.22
804.00	336.26
805.00	369.80
806.00	401.01
807.00	401.01
808.00	384.63
809.00	359.66
810.00	385.41
811.00	381.51
812.00	378.39
813.00	353.42
814.00	377.61
815.00	398.67
816.00	398.67
817.00	372.15
818.00	373.71
819.00	396.33
820.00	397.11
821.00	419.74
822.00	422.08
823.00	429.10
824.00	388.53
825.00	369.02
826.00	382.29
827.00	397.11
828.00	420.52
829.00	419.74
830.00	428.32
831.00	416.62
832.00	427.54
833.00	421.30
834.00	435.34
835.00	422.08
836.00	413.49
837.00	389.31
838.00	388.53
839.00	393.21
840.00	410.37
841.00	400.23
842.00	399.45
843.00	379.95
844.00	386.19
845.00	365.90
846.00	376.05
847.00	362.00
848.00	393.99
849.00	390.87
850.00	406.47
851.00	366.68
852.00	367.46
853.00	364.34
854.00	377.61
855.00	388.53
856.00	374.49
857.00	369.80
858.00	361.22
859.00	366.68
860.00	385.41
861.00	379.95
862.00	394.77
863.00	392.43
864.00	404.91
865.00	396.33
866.00	404.13
867.00	408.03
868.00	375.27
869.00	366.68
870.00	344.06
871.00	369.02
872.00	391.65
873.00	404.13
874.00	419.74
875.00	396.33
876.00	400.23
877.00	392.43
878.00	414.27
879.00	408.03
880.00	422.08
881.00	408.81
882.00	414.27
883.00	402.57
884.00	404.91
885.00	401.79
886.00	417.40
887.00	406.47
888.00	385.41
889.00	390.09
890.00	395.55
891.00	424.42
892.00	404.91
893.00	403.35
894.00	393.21
895.00	390.09
896.00	415.06
897.00	423.64
898.00	437.68
899.00	420.52
900.00	427.54
901.00	404.13
902.00	404.13
903.00	393.21
904.00	402.57
905.00	389.31
906.00	362.00
907.00	351.08
908.00	340.16
909.00	706.06
910.00	741.17
911.00	774.72
912.00	447.04
913.00	429.88
914.00	404.13
915.00	354.98
916.00	350.30
917.00	365.12
918.00	418.18
919.00	415.06
920.00	413.49
921.00	415.06
922.00	431.44
923.00	404.13
924.00	394.77
925.00	386.19
926.00	384.63
927.00	366.68
928.00	344.06
929.00	389.31
930.00	391.65
931.00	406.47
932.00	358.88
933.00	357.32
934.00	370.58
935.00	389.31
936.00	383.85
937.00	393.21
938.00	411.93
939.00	436.90
940.00	429.88
941.00	425.98
942.00	416.62
943.00	419.74
944.00	404.91
945.00	416.62
946.00	393.99
947.00	417.40
948.00	427.54
949.00	422.08
950.00	375.27
951.00	349.52
952.00	354.98
953.00	378.39
954.00	372.15
955.00	388.53
956.00	380.73
957.00	397.11
958.00	416.62
959.00	426.76
960.00	412.71
961.00	384.63
962.00	395.55
963.00	420.52
964.00	408.81
965.00	401.01
966.00	393.21
967.00	400.23
968.00	419.74
969.00	418.18
970.00	434.56
971.00	432.22
972.00	422.08
973.00	387.75
974.00	372.93
975.00	347.96
976.00	343.28
977.00	327.68
978.00	366.68
979.00	379.17
980.00	393.21
981.00	390.09
982.00	415.84
983.00	454.84
984.00	445.48
985.00	432.22
986.00	411.15
987.00	404.13
988.00	405.69
989.00	401.01
990.00	424.42
991.00	417.40
992.00	431.44
993.00	408.03
994.00	420.52
995.00	382.29
996.00	401.79
997.00	389.31
998.00	389.31
999.00	392.43
1000.00	404.13
1001.00	405.69
1002.00	383.85
1003.00	393.21
1004.00	402.57
1005.00	404.91
1006.00	383.07
1007.00	380.73
1008.00	367.46
1009.00	377.61
1010.00	377.61
1011.00	384.63
1012.00	372.15
1013.00	370.58
1014.00	388.53
1015.00	395.55
1016.00	415.84
1017.00	411.15
1018.00	424.42
1019.00	415.06
1020.00	393.21
1021.00	382.29
1022.00	367.46
1023.00	378.39
1024.00	362.78
1025.00	378.39
1026.00	386.19
1027.00	390.09
1028.00	397.89
1029.00	395.55
1030.00	413.49
1031.00	412.71
1032.00	433.78
1033.00	432.22
1034.00	423.64
1035.00	412.71
1036.00	417.40
1037.00	436.12
1038.00	443.92
1039.00	419.74
1040.00	403.35
1041.00	372.93
1042.00	390.09
1043.00	384.63
1044.00	402.57
1045.00	442.36
1046.00	443.92
1047.00	447.82
1048.00	390.87
1049.00	395.55
1050.00	394.77
1051.00	406.47
1052.00	397.11
1053.00	407.25
1054.00	405.69
1055.00	414.27
1056.00	382.29
1057.00	365.12
1058.00	357.32
1059.00	360.44
1060.00	373.71
1061.00	374.49
1062.00	388.53
1063.00	396.33
1064.00	396.33
1065.00	409.59
1066.00	410.37
1067.00	412.71
1068.00	380.73
1069.00	376.83
1070.00	356.54
1071.00	362.00
1072.00	363.56
1073.00	404.91
1074.00	431.44
1075.00	427.54
1076.00	414.27
1077.00	401.01
1078.00	420.52
1079.00	447.04
1080.00	454.06
1081.00	438.46
1082.00	402.57
1083.00	389.31
1084.00	384.63
1085.00	379.17
1086.00	401.01
1087.00	425.98
1088.00	415.84
1089.00	394.77
1090.00	379.95
1091.00	385.41
1092.00	408.81
1093.00	390.09
1094.00	385.41
1095.00	378.39
1096.00	395.55
1097.00	407.25
1098.00	378.39
1099.00	347.18
1100.00	354.98
1101.00	389.31
1102.00	418.96
1103.00	416.62
1104.00	394.77
1105.00	400.23
1106.00	401.01
1107.00	396.33
1108.00	410.37
1109.00	419.74
1110.00	412.71
1111.00	372.15
1112.00	349.52
1113.00	369.02
1114.00	368.24
1115.00	354.98
1116.00	372.93
1117.00	376.83
1118.00	382.29
1119.00	366.68
1120.00	372.15
1121.00	366.68
1122.00	367.46
1123.00	380.73
1124.00	422.08
1125.00	405.69
1126.00	386.19
1127.00	365.12
1128.00	382.29
1129.00	380.73
1130.00	369.80
1131.00	351.08
1132.00	386.97
1133.00	409.59
1134.00	418.18
1135.00	410.37
1136.00	418.96
1137.00	436.12
1138.00	414.27
1139.00	402.57
1140.00	375.27
1141.00	386.19
1142.00	371.36
1143.00	386.97
1144.00	393.99
1145.00	413.49
1146.00	414.27
1147.00	426.76
1148.00	422.86
1149.00	412.71
1150.00	398.67
1151.00	386.19
1152.00	413.49
1153.00	402.57
1154.00	388.53
1155.00	344.84
1156.00	359.66
1157.00	382.29
1158.00	402.57
1159.00	418.18
1160.00	410.37
1161.00	435.34
1162.00	397.89
1163.00	407.25
1164.00	408.81
1165.00	450.94
1166.00	461.09
1167.00	443.14
1168.00	406.47
1169.00	389.31
1170.00	393.99
1171.00	405.69
1172.00	426.76
1173.00	428.32
1174.00	411.15
1175.00	402.57
1176.00	376.83
1177.00	411.15
1178.00	415.84
1179.00	446.26
1180.00	440.80
1181.00	454.84
1182.00	452.50
1183.00	462.65
1184.00	441.58
1185.00	415.06
1186.00	393.21
1187.00	385.41
1188.00	379.17
1189.00	408.03
1190.00	393.99
1191.00	418.18
1192.00	381.51
1193.00	390.09
1194.00	399.45
1195.00	404.13
1196.00	408.03
1197.00	406.47
1198.00	433.00
1199.00	457.18
1200.00	450.16
1201.00	461.09
1202.00	447.04
1203.00	467.33
1204.00	425.20
1205.00	428.32
1206.00	421.30
1207.00	428.32
1208.00	433.00
1209.00	428.32
1210.00	429.88
1211.00	416.62
1212.00	416.62
1213.00	433.78
1214.00	433.00
1215.00	415.84
1216.00	400.23
1217.00	398.67
1218.00	409.59
1219.00	404.13
1220.00	396.33
1221.00	374.49
1222.00	381.51
1223.00	397.11
1224.00	414.27
1225.00	413.49
1226.00	405.69
1227.00	390.09
1228.00	380.73
1229.00	379.95
1230.00	397.11
1231.00	405.69
1232.00	400.23
1233.00	412.71
1234.00	425.20
1235.00	445.48
1236.00	425.20
1237.00	397.11
1238.00	378.39
1239.00	403.35
1240.00	397.89
1241.00	396.33
1242.00	379.17
1243.00	405.69
1244.00	432.22
1245.00	433.00
1246.00	425.20
1247.00	397.11
1248.00	409.59
1249.00	411.93
1250.00	425.20
1251.00	379.17
1252.00	373.71
1253.00	351.86
1254.00	390.09
1255.00	384.63
1256.00	389.31
1257.00	381.51
1258.00	362.00
1259.00	362.00
1260.00	353.42
1261.00	390.87
1262.00	402.57
1263.00	408.03
1264.00	381.51
1265.00	365.90
1266.00	380.73
1267.00	402.57
1268.00	415.06
1269.00	397.11
1270.00	393.21
1271.00	393.99
1272.00	383.85
1273.00	383.07
1274.00	363.56
1275.00	369.80
1276.00	390.87
1277.00	428.32
1278.00	463.43
1279.00	445.48
1280.00	425.20
1281.00	407.25
1282.00	408.81
1283.00	432.22
1284.00	438.46
1285.00	418.18
1286.00	365.12
1287.00	354.20
1288.00	379.17
1289.00	449.38
1290.00	441.58
1291.00	444.70
1292.00	402.57
1293.00	391.65
1294.00	368.24
1295.00	385.41
1296.00	386.19
1297.00	411.93
1298.00	413.49
1299.00	431.44
1300.00	425.20
1301.00	403.35
1302.00	406.47
1303.00	390.87
1304.00	404.13
1305.00	404.13
1306.00	418.96
1307.00	415.84
1308.00	410.37
1309.00	411.93
1310.00	397.11
1311.00	378.39
1312.00	376.05
1313.00	391.65
1314.00	406.47
1315.00	393.99
1316.00	404.91
1317.00	393.21
1318.00	373.71
1319.00	368.24
1320.00	354.98
1321.00	354.98
1322.00	358.88
1323.00	382.29
1324.00	393.99
1325.00	383.85
1326.00	398.67
1327.00	404.13
1328.00	423.64
1329.00	425.98
1330.00	445.48
1331.00	451.72
1332.00	453.28
1333.00	439.24
1334.00	411.15
1335.00	407.25
1336.00	420.52
1337.00	439.24
1338.00	444.70
1339.00	425.20
1340.00	408.81
1341.00	390.09
1342.00	381.51
1343.00	390.87
1344.00	395.55
1345.00	410.37
1346.00	394.77
1347.00	372.93
1348.00	364.34
1349.00	354.98
1350.00	372.93
1351.00	397.11
1352.00	397.11
1353.00	373.71
1354.00	361.22
1355.00	372.15
1356.00	400.23
1357.00	395.55
1358.00	376.05
1359.00	386.97
1360.00	390.09
1361.00	412.71
1362.00	390.09
1363.00	398.67
1364.00	404.13
1365.00	404.91
1366.00	404.13
1367.00	408.81
1368.00	443.92
1369.00	431.44
1370.00	423.64
1371.00	423.64
1372.00	436.90
1373.00	433.00
1374.00	420.52
1375.00	428.32
1376.00	450.94
1377.00	438.46
1378.00	404.91
1379.00	374.49
1380.00	378.39
1381.00	363.56
1382.00	379.95
1383.00	362.00
1384.00	376.05
1385.00	379.95
1386.00	376.83
1387.00	401.79
1388.00	389.31
1389.00	398.67
1390.00	397.89
1391.00	393.99
1392.00	387.75
1393.00	382.29
1394.00	389.31
1395.00	434.56
1396.00	441.58
1397.00	447.04
1398.00	412.71
1399.00	430.66
1400.00	459.53
1401.00	467.33
1402.00	442.36
1403.00	422.08
1404.00	425.98
1405.00	432.22
1406.00	436.12
1407.00	436.12
1408.00	436.12
1409.00	409.59
1410.00	387.75
1411.00	375.27
1412.00	402.57
1413.00	405.69
1414.00	391.65
1415.00	373.71
1416.00	381.51
1417.00	401.01
1418.00	400.23
1419.00	383.07
1420.00	360.44
1421.00	369.80
1422.00	382.29
1423.00	397.89
1424.00	404.13
1425.00	401.79
1426.00	418.96
1427.00	418.96
1428.00	408.81
1429.00	389.31
1430.00	356.54
1431.00	403.35
1432.00	396.33
1433.00	415.06
1434.00	374.49
1435.00	385.41
1436.00	383.07
1437.00	383.07
1438.00	372.93
1439.00	362.00
1440.00	393.99
1441.00	406.47
1442.00	426.76
1443.00	389.31
1444.00	374.49
1445.00	374.49
1446.00	415.06
1447.00	423.64
1448.00	422.08
1449.00	390.87
1450.00	412.71
1451.00	425.20
1452.00	426.76
1453.00	393.99
1454.00	375.27
1455.00	360.44
1456.00	362.78
1457.00	353.42
1458.00	424.42
1459.00	448.60
1460.00	456.40
1461.00	390.87
1462.00	379.17
1463.00	391.65
1464.00	419.74
1465.00	440.02
1466.00	433.78
1467.00	430.66
1468.00	433.78
1469.00	436.90
1470.00	418.96
1471.00	388.53
1472.00	371.36
1473.00	371.36
1474.00	386.97
1475.00	411.15
1476.00	425.20
1477.00	417.40
1478.00	404.13
1479.00	384.63
1480.00	394.77
1481.00	372.93
1482.00	388.53
1483.00	394.77
1484.00	429.10
1485.00	426.76
1486.00	391.65
1487.00	362.00
1488.00	344.84
1489.00	372.15
1490.00	380.73
1491.00	403.35
1492.00	418.96
1493.00	433.78
1494.00	427.54
1495.00	415.84
1496.00	430.66
1497.00	429.88
1498.00	429.10
1499.00	413.49
1500.00	402.57
1501.00	390.09
1502.00	385.41
1503.00	397.11
1504.00	415.84
1505.00	425.20
1506.00	434.56
1507.00	429.88
1508.00	435.34
1509.00	431.44
1510.00	427.54
1511.00	406.47
1512.00	413.49
1513.00	427.54
1514.00	449.38
1515.00	446.26
1516.00	429.10
1517.00	418.18
1518.00	407.25
1519.00	400.23
1520.00	383.85
1521.00	399.45
1522.00	431.44
1523.00	450.16
1524.00	449.38
1525.00	441.58
1526.00	461.87
1527.00	464.21
1528.00	446.26
1529.00	424.42
1530.00	398.67
1531.00	391.65
1532.00	376.05
1533.00	390.87
1534.00	411.93
1535.00	429.10
1536.00	422.86
1537.00	415.84
1538.00	404.91
1539.00	400.23
1540.00	390.09
1541.00	376.83
1542.00	386.97
1543.00	362.78
1544.00	375.27
1545.00	362.00
1546.00	379.95
1547.00	418.96
1548.00	418.96
1549.00	414.27
1550.00	356.54
1551.00	366.68
1552.00	376.83
1553.00	379.95
1554.00	354.20
1555.00	335.48
1556.00	331.58
1557.00	329.24
1558.00	359.66
1559.00	389.31
1560.00	418.18
1561.00	386.97
1562.00	356.54
1563.00	337.82
1564.00	354.98
1565.00	395.55
1566.00	402.57
1567.00	374.49
1568.00	354.20
1569.00	359.66
1570.00	391.65
1571.00	383.85
1572.00	386.19
1573.00	370.58
1574.00	368.24
1575.00	357.32
1576.00	384.63
1577.00	397.11
1578.00	401.01
1579.00	399.45
1580.00	406.47
1581.00	407.25
1582.00	394.77
1583.00	388.53
1584.00	386.19
1585.00	365.90
1586.00	347.18
1587.00	343.28
1588.00	358.88
1589.00	360.44
1590.00	352.64
1591.00	347.96
1592.00	364.34
1593.00	407.25
1594.00	407.25
1595.00	391.65
1596.00	376.83
1597.00	377.61
1598.00	389.31
1599.00	401.01
1600.00	432.22
1601.00	419.74
1602.00	383.85
1603.00	365.90
1604.00	349.52
1605.00	368.24
1606.00	376.83
1607.00	401.79
1608.00	414.27
1609.00	393.99
1610.00	383.85
1611.00	376.83
1612.00	392.43
1613.00	399.45
1614.00	404.13
1615.00	400.23
1616.00	412.71
1617.00	402.57
1618.00	418.18
1619.00	400.23
1620.00	409.59
1621.00	430.66
1622.00	447.82
1623.00	447.82
1624.00	419.74
1625.00	378.39
1626.00	341.72
1627.00	302.71
1628.00	326.11
1629.00	317.53
1630.00	333.14
1631.00	365.12
1632.00	404.91
1633.00	394.77
1634.00	370.58
1635.00	367.46
1636.00	376.83
1637.00	397.89
1638.00	386.19
1639.00	415.06
1640.00	385.41
1641.00	401.79
1642.00	370.58
1643.00	371.36
1644.00	359.66
1645.00	379.95
1646.00	376.83
1647.00	372.93
1648.00	379.95
1649.00	397.89
1650.00	414.27
1651.00	411.93
1652.00	418.96
1653.00	376.05
1654.00	362.78
1655.00	347.96
1656.00	376.05
1657.00	373.71
1658.00	368.24
1659.00	389.31
1660.00	393.99
1661.00	409.59
1662.00	387.75
1663.00	401.79
1664.00	408.03
1665.00	408.03
1666.00	390.09
1667.00	383.07
1668.00	385.41
1669.00	388.53
1670.00	395.55
1671.00	401.79
1672.00	404.91
1673.00	397.11
1674.00	397.89
1675.00	390.09
1676.00	390.87
1677.00	409.59
1678.00	435.34
1679.00	438.46
1680.00	444.70
1681.00	432.22
1682.00	423.64
1683.00	413.49
1684.00	418.18
1685.00	515.70
1686.00	631.16
1687.00	830.11
1688.00	1015.01
1689.00	1211.62
1690.00	1328.64
1691.00	1369.99
1692.00	1263.11
1693.00	1078.99
1694.00	851.95
1695.00	667.05
1696.00	564.07
1697.00	503.22
1698.00	458.74
1699.00	419.74
1700.00	368.24
1701.00	385.41
1702.00	389.31
1703.00	439.24
1704.00	437.68
1705.00	422.08
1706.00	388.53
1707.00	363.56
1708.00	365.12
1709.00	368.24
1710.00	401.01
1711.00	404.13
1712.00	424.42
1713.00	390.09
1714.00	390.87
1715.00	370.58
1716.00	391.65
1717.00	393.99
1718.00	401.79
1719.00	374.49
1720.00	369.80
1721.00	369.80
1722.00	413.49
1723.00	422.08
1724.00	397.89
1725.00	376.05
1726.00	357.32
1727.00	360.44
1728.00	357.32
1729.00	376.05
1730.00	377.61
1731.00	376.83
1732.00	376.05
1733.00	388.53
1734.00	411.93
1735.00	409.59
1736.00	403.35
1737.00	381.51
1738.00	389.31
1739.00	397.11
1740.00	383.85
1741.00	360.44
1742.00	345.62
1743.00	345.62
1744.00	370.58
1745.00	390.09
1746.00	396.33
1747.00	382.29
1748.00	392.43
1749.00	422.08
1750.00	416.62
1751.00	401.79
1752.00	378.39
1753.00	384.63
1754.00	369.80
1755.00	369.02
1756.00	363.56
1757.00	357.32
1758.00	340.16
1759.00	362.00
1760.00	348.74
1761.00	376.05
1762.00	382.29
1763.00	444.70
1764.00	447.82
1765.00	404.13
1766.00	358.10
1767.00	342.50
1768.00	372.15
1769.00	385.41
1770.00	390.09
1771.00	391.65
1772.00	391.65
1773.00	404.91
1774.00	429.10
1775.00	416.62
1776.00	404.91
1777.00	364.34
1778.00	389.31
1779.00	397.89
1780.00	399.45
1781.00	385.41
1782.00	367.46
1783.00	394.77
1784.00	390.09
1785.00	387.75
1786.00	353.42
1787.00	358.10
1788.00	383.85
1789.00	410.37
1790.00	433.78
1791.00	433.78
1792.00	411.15
1793.00	383.07
1794.00	390.09
1795.00	403.35
1796.00	415.06
1797.00	372.93
1798.00	350.30
1799.00	345.62
1800.00	375.27
1801.00	394.77
1802.00	398.67
1803.00	385.41
1804.00	387.75
1805.00	384.63
1806.00	396.33
1807.00	387.75
1808.00	406.47
1809.00	397.11
1810.00	412.71
1811.00	378.39
1812.00	388.53
1813.00	372.15
1814.00	402.57
1815.00	394.77
1816.00	435.34
1817.00	425.20
1818.00	450.16
1819.00	410.37
1820.00	405.69
1821.00	397.11
1822.00	407.25
1823.00	404.13
1824.00	389.31
1825.00	393.99
1826.00	393.21
1827.00	400.23
1828.00	421.30
1829.00	426.76
1830.00	433.00
1831.00	384.63
1832.00	378.39
1833.00	372.93
1834.00	390.09
1835.00	393.99
1836.00	376.83
1837.00	369.02
1838.00	375.27
1839.00	399.45
1840.00	388.53
1841.00	379.17
1842.00	389.31
1843.00	408.03
1844.00	411.15
1845.00	408.81
1846.00	408.03
1847.00	394.77
1848.00	375.27
1849.00	394.77
1850.00	397.11
1851.00	401.01
1852.00	386.97
1853.00	391.65
1854.00	392.43
1855.00	393.99
1856.00	379.17
1857.00	371.36
1858.00	352.64
1859.00	375.27
1860.00	385.41
1861.00	415.06
1862.00	422.86
1863.00	412.71
1864.00	381.51
1865.00	380.73
1866.00	386.19
1867.00	409.59
1868.00	397.11
1869.00	391.65
1870.00	393.21
1871.00	384.63
1872.00	383.07
1873.00	378.39
1874.00	379.17
1875.00	381.51
1876.00	383.07
1877.00	401.79
1878.00	408.03
1879.00	394.77
1880.00	373.71
1881.00	392.43
1882.00	426.76
1883.00	418.18
1884.00	391.65
1885.00	376.83
1886.00	400.23
1887.00	430.66
1888.00	433.78
1889.00	442.36
1890.00	422.08
1891.00	400.23
1892.00	391.65
1893.00	397.89
1894.00	384.63
1895.00	391.65
1896.00	371.36
1897.00	397.89
1898.00	378.39
1899.00	415.06
1900.00	425.98
1901.00	423.64
1902.00	403.35
1903.00	389.31
1904.00	423.64
1905.00	415.84
1906.00	422.86
1907.00	397.89
1908.00	407.25
1909.00	390.87
1910.00	388.53
1911.00	344.84
1912.00	347.18
1913.00	345.62
1914.00	362.00
1915.00	361.22
1916.00	386.97
1917.00	424.42
1918.00	445.48
1919.00	436.90
1920.00	411.93
1921.00	411.15
1922.00	400.23
1923.00	413.49
1924.00	386.19
1925.00	375.27
1926.00	344.06
1927.00	337.04
1928.00	376.83
1929.00	415.84
1930.00	435.34
1931.00	393.21
1932.00	373.71
1933.00	395.55
1934.00	403.35
1935.00	401.79
1936.00	367.46
1937.00	371.36
1938.00	376.83
1939.00	386.97
1940.00	390.09
1941.00	374.49
1942.00	378.39
1943.00	368.24
1944.00	362.78
1945.00	374.49
1946.00	405.69
1947.00	393.99
1948.00	338.60
1949.00	309.73
1950.00	327.67
1951.00	366.68
1952.00	380.73
1953.00	404.91
1954.00	410.37
1955.00	383.07
1956.00	373.71
1957.00	348.74
1958.00	384.63
1959.00	389.31
1960.00	408.03
1961.00	401.01
1962.00	394.77
1963.00	379.17
1964.00	386.19
1965.00	379.95
1966.00	418.18
1967.00	395.55
1968.00	411.15
1969.00	401.01
1970.00	398.67
1971.00	370.58
1972.00	366.68
1973.00	385.41
1974.00	415.06
1975.00	417.40
1976.00	395.55
1977.00	369.02
1978.00	355.76
1979.00	358.88
1980.00	388.53
1981.00	388.53
1982.00	382.29
1983.00	352.64
1984.00	361.22
1985.00	378.39
1986.00	403.35
1987.00	425.98
1988.00	400.23
1989.00	379.17
1990.00	362.78
1991.00	393.99
1992.00	389.31
1993.00	397.89
1994.00	389.31
1995.00	399.45
1996.00	369.02
1997.00	351.86
1998.00	365.90
1999.00	369.80
2000.00	376.05
2001.00	340.16
2002.00	379.95
2003.00	402.57
2004.00	440.02
2005.00	411.93
2006.00	409.59
2007.00	384.63
2008.00	372.93
2009.00	355.76
2010.00	370.58
2011.00	376.05
2012.00	358.10
2013.00	356.54
2014.00	348.74
2015.00	377.61
2016.00	376.05
2017.00	397.11
2018.00	390.09
2019.00	414.27
2020.00	391.65
2021.00	395.55
2022.00	380.73
2023.00	383.07
2024.00	387.75
2025.00	378.39
2026.00	383.85
2027.00	378.39
2028.00	373.71
2029.00	366.68
2030.00	392.43
2031.00	386.97
2032.00	371.36
2033.00	351.08
2034.00	360.44
2035.00	395.55
2036.00	387.75
2037.00	397.11
2038.00	408.03
2039.00	409.59
2040.00	404.91
2041.00	376.05
2042.00	389.31
2043.00	385.41
2044.00	372.93
2045.00	355.76
2046.00	368.24
2047.00	421.30
>>>>>End Processed Spectral Data<<<<<
