SpectraSuite Data File
++++++++++++++++++++++++++++++++++++
Date: Thu Nov 16 14:27:25 EST 2017
User: cheriyan
Dark Spectrum Present: No
Reference Spectrum Present: No
Number of Sampled Component Spectra: 1
Spectrometers: USB2+H05261
Integration Time (usec): 100000 (USB2+H05261)
Spectra Averaged: 1 (USB2+H05261)
Boxcar Smoothing: 1 (USB2+H05261)
Correct for Electrical Dark: No (USB2+H05261)
Strobe/Lamp Enabled: No (USB2+H05261)
Correct for Detector Non-linearity: No (USB2+H05261)
Correct for Stray Light: No (USB2+H05261)
Number of Pixels in Processed Spectrum: 2048
>>>>>Begin Processed Spectral Data<<<<<
0.00	252.78
1.00	252.78
2.00	237.95
3.00	237.95
4.00	230.15
5.00	223.13
6.00	223.91
7.00	231.71
8.00	251.22
9.00	245.76
10.00	227.03
11.00	194.26
12.00	173.20
13.00	156.82
14.00	195.04
15.00	204.41
16.00	223.91
17.00	230.15
18.00	251.22
19.00	269.16
20.00	270.72
21.00	267.60
22.00	264.48
23.00	261.36
24.00	268.38
25.00	283.98
26.00	295.69
27.00	319.87
28.00	327.68
29.00	338.60
30.00	337.82
31.00	327.68
32.00	333.14
33.00	335.48
34.00	360.44
35.00	373.71
36.00	379.17
37.00	381.51
38.00	375.27
39.00	388.53
40.00	386.97
41.00	393.99
42.00	390.87
43.00	389.31
44.00	378.39
45.00	387.75
46.00	390.09
47.00	411.93
48.00	398.67
49.00	418.96
50.00	408.03
51.00	404.13
52.00	417.40
53.00	436.12
54.00	447.82
55.00	418.18
56.00	401.79
57.00	390.87
58.00	404.91
59.00	413.49
60.00	415.06
61.00	401.01
62.00	370.58
63.00	359.66
64.00	365.12
65.00	369.02
66.00	366.68
67.00	372.15
68.00	409.59
69.00	417.40
70.00	432.22
71.00	405.69
72.00	413.49
73.00	391.65
74.00	386.97
75.00	372.93
76.00	354.20
77.00	363.56
78.00	369.80
79.00	390.87
80.00	401.01
81.00	393.99
82.00	393.21
83.00	353.42
84.00	358.88
85.00	355.76
86.00	383.07
87.00	394.77
88.00	412.71
89.00	411.93
90.00	412.71
91.00	408.03
92.00	424.42
93.00	402.57
94.00	408.03
95.00	385.41
96.00	420.52
97.00	399.45
98.00	425.20
99.00	394.77
100.00	390.87
101.00	354.20
102.00	371.36
103.00	369.02
104.00	371.36
105.00	369.02
106.00	386.97
107.00	391.65
108.00	382.29
109.00	391.65
110.00	390.87
111.00	387.75
112.00	345.62
113.00	340.94
114.00	344.06
115.00	347.96
116.00	367.46
117.00	372.93
118.00	401.01
119.00	387.75
120.00	393.21
121.00	414.27
122.00	432.22
123.00	427.54
124.00	407.25
125.00	397.89
126.00	392.43
127.00	385.41
128.00	391.65
129.00	398.67
130.00	393.99
131.00	379.17
132.00	373.71
133.00	375.27
134.00	391.65
135.00	386.19
136.00	398.67
137.00	383.07
138.00	402.57
139.00	392.43
140.00	398.67
141.00	369.80
142.00	362.00
143.00	353.42
144.00	344.84
145.00	358.10
146.00	379.17
147.00	386.97
148.00	387.75
149.00	380.73
150.00	397.11
151.00	369.80
152.00	367.46
153.00	368.24
154.00	401.01
155.00	395.55
156.00	400.23
157.00	379.17
158.00	399.45
159.00	403.35
160.00	418.96
161.00	390.09
162.00	401.79
163.00	399.45
164.00	432.22
165.00	387.75
166.00	370.58
167.00	356.54
168.00	393.21
169.00	411.15
170.00	384.63
171.00	384.63
172.00	405.69
173.00	427.54
174.00	423.64
175.00	382.29
176.00	386.97
177.00	369.80
178.00	402.57
179.00	379.95
180.00	377.61
181.00	365.12
182.00	376.05
183.00	389.31
184.00	382.29
185.00	388.53
186.00	395.55
187.00	391.65
188.00	381.51
189.00	372.15
190.00	372.93
191.00	394.77
192.00	403.35
193.00	402.57
194.00	372.93
195.00	356.54
196.00	358.10
197.00	389.31
198.00	401.01
199.00	412.71
200.00	401.79
201.00	420.52
202.00	389.31
203.00	401.01
204.00	393.21
205.00	418.18
206.00	412.71
207.00	409.59
208.00	425.98
209.00	429.10
210.00	425.98
211.00	408.81
212.00	396.33
213.00	378.39
214.00	396.33
215.00	412.71
216.00	419.74
217.00	395.55
218.00	386.19
219.00	402.57
220.00	408.03
221.00	393.21
222.00	379.17
223.00	403.35
224.00	415.06
225.00	418.18
226.00	399.45
227.00	406.47
228.00	392.43
229.00	375.27
230.00	343.28
231.00	352.64
232.00	375.27
233.00	420.52
234.00	421.30
235.00	438.46
236.00	412.71
237.00	427.54
238.00	387.75
239.00	352.64
240.00	370.58
241.00	392.43
242.00	422.08
243.00	375.27
244.00	365.90
245.00	388.53
246.00	408.81
247.00	400.23
248.00	386.97
249.00	383.07
250.00	381.51
251.00	395.55
252.00	415.06
253.00	440.02
254.00	431.44
255.00	411.93
256.00	397.89
257.00	388.53
258.00	399.45
259.00	400.23
260.00	409.59
261.00	392.43
262.00	382.29
263.00	383.85
264.00	391.65
265.00	389.31
266.00	385.41
267.00	399.45
268.00	405.69
269.00	382.29
270.00	365.12
271.00	370.58
272.00	403.35
273.00	437.68
274.00	429.88
275.00	413.49
276.00	404.13
277.00	410.37
278.00	392.43
279.00	385.41
280.00	397.89
281.00	417.40
282.00	407.25
283.00	402.57
284.00	407.25
285.00	411.93
286.00	383.85
287.00	383.07
288.00	359.66
289.00	377.61
290.00	364.34
291.00	371.36
292.00	385.41
293.00	393.21
294.00	407.25
295.00	412.71
296.00	393.21
297.00	397.11
298.00	381.51
299.00	404.13
300.00	383.07
301.00	390.09
302.00	369.02
303.00	384.63
304.00	383.85
305.00	413.49
306.00	399.45
307.00	380.73
308.00	348.74
309.00	361.22
310.00	370.58
311.00	415.06
312.00	404.91
313.00	402.57
314.00	377.61
315.00	383.85
316.00	389.31
317.00	386.97
318.00	394.77
319.00	400.23
320.00	404.91
321.00	421.30
322.00	418.96
323.00	410.37
324.00	376.05
325.00	367.46
326.00	362.00
327.00	385.41
328.00	397.11
329.00	419.74
330.00	383.85
331.00	388.53
332.00	373.71
333.00	379.17
334.00	357.32
335.00	374.49
336.00	416.62
337.00	436.90
338.00	447.04
339.00	419.74
340.00	419.74
341.00	367.46
342.00	369.02
343.00	362.78
344.00	402.57
345.00	411.93
346.00	397.89
347.00	376.83
348.00	387.75
349.00	391.65
350.00	410.37
351.00	396.33
352.00	415.84
353.00	418.18
354.00	390.09
355.00	373.71
356.00	342.50
357.00	365.90
358.00	375.27
359.00	401.79
360.00	426.76
361.00	433.78
362.00	438.46
363.00	433.00
364.00	427.54
365.00	414.27
366.00	390.87
367.00	390.87
368.00	430.66
369.00	456.40
370.00	452.50
371.00	428.32
372.00	405.69
373.00	393.21
374.00	384.63
375.00	360.44
376.00	386.97
377.00	388.53
378.00	396.33
379.00	384.63
380.00	380.73
381.00	386.19
382.00	378.39
383.00	384.63
384.00	398.67
385.00	411.93
386.00	386.97
387.00	389.31
388.00	365.90
389.00	390.87
390.00	403.35
391.00	415.84
392.00	425.98
393.00	397.89
394.00	381.51
395.00	393.99
396.00	425.98
397.00	454.06
398.00	418.96
399.00	364.34
400.00	348.74
401.00	365.90
402.00	390.09
403.00	389.31
404.00	404.91
405.00	414.27
406.00	424.42
407.00	376.83
408.00	390.87
409.00	401.79
410.00	430.66
411.00	445.48
412.00	431.44
413.00	429.10
414.00	416.62
415.00	417.40
416.00	407.25
417.00	383.85
418.00	379.17
419.00	381.51
420.00	386.97
421.00	386.19
422.00	386.97
423.00	408.03
424.00	404.13
425.00	405.69
426.00	372.93
427.00	385.41
428.00	378.39
429.00	387.75
430.00	395.55
431.00	417.40
432.00	426.76
433.00	436.90
434.00	433.00
435.00	422.86
436.00	414.27
437.00	405.69
438.00	407.25
439.00	429.10
440.00	425.20
441.00	464.99
442.00	440.80
443.00	452.50
444.00	418.18
445.00	413.49
446.00	408.81
447.00	404.13
448.00	383.85
449.00	374.49
450.00	375.27
451.00	406.47
452.00	418.18
453.00	415.06
454.00	420.52
455.00	412.71
456.00	431.44
457.00	394.77
458.00	381.51
459.00	366.68
460.00	369.80
461.00	376.05
462.00	374.49
463.00	376.83
464.00	386.97
465.00	410.37
466.00	447.04
467.00	429.88
468.00	410.37
469.00	381.51
470.00	375.27
471.00	397.11
472.00	414.27
473.00	443.14
474.00	404.91
475.00	390.87
476.00	381.51
477.00	397.11
478.00	410.37
479.00	434.56
480.00	443.92
481.00	435.34
482.00	421.30
483.00	424.42
484.00	442.36
485.00	447.82
486.00	430.66
487.00	402.57
488.00	394.77
489.00	393.99
490.00	386.97
491.00	381.51
492.00	399.45
493.00	423.64
494.00	454.06
495.00	422.08
496.00	415.84
497.00	389.31
498.00	402.57
499.00	368.24
500.00	361.22
501.00	369.80
502.00	386.19
503.00	391.65
504.00	389.31
505.00	415.84
506.00	427.54
507.00	442.36
508.00	446.26
509.00	440.02
510.00	436.90
511.00	418.18
512.00	436.12
513.00	447.82
514.00	461.09
515.00	436.12
516.00	418.18
517.00	414.27
518.00	410.37
519.00	398.67
520.00	393.99
521.00	387.75
522.00	391.65
523.00	389.31
524.00	404.13
525.00	422.08
526.00	411.15
527.00	404.13
528.00	393.99
529.00	396.33
530.00	392.43
531.00	393.21
532.00	403.35
533.00	411.15
534.00	411.15
535.00	393.99
536.00	369.80
537.00	375.27
538.00	408.81
539.00	440.02
540.00	417.40
541.00	396.33
542.00	401.79
543.00	409.59
544.00	417.40
545.00	390.87
546.00	382.29
547.00	403.35
548.00	414.27
549.00	426.76
550.00	399.45
551.00	392.43
552.00	401.01
553.00	404.13
554.00	415.06
555.00	409.59
556.00	411.93
557.00	428.32
558.00	419.74
559.00	411.15
560.00	389.31
561.00	416.62
562.00	410.37
563.00	421.30
564.00	403.35
565.00	412.71
566.00	423.64
567.00	425.20
568.00	419.74
569.00	372.93
570.00	358.88
571.00	370.58
572.00	408.03
573.00	411.15
574.00	407.25
575.00	389.31
576.00	372.15
577.00	362.00
578.00	362.78
579.00	362.00
580.00	354.98
581.00	349.52
582.00	400.23
583.00	417.40
584.00	430.66
585.00	414.27
586.00	393.21
587.00	381.51
588.00	341.72
589.00	342.50
590.00	341.72
591.00	386.19
592.00	410.37
593.00	436.12
594.00	413.49
595.00	415.84
596.00	406.47
597.00	426.76
598.00	413.49
599.00	392.43
600.00	379.17
601.00	386.19
602.00	386.19
603.00	402.57
604.00	393.99
605.00	392.43
606.00	411.15
607.00	425.20
608.00	460.31
609.00	433.00
610.00	401.79
611.00	379.95
612.00	370.58
613.00	393.99
614.00	392.43
615.00	390.09
616.00	409.59
617.00	423.64
618.00	399.45
619.00	382.29
620.00	362.78
621.00	386.97
622.00	375.27
623.00	381.51
624.00	374.49
625.00	377.61
626.00	371.36
627.00	368.24
628.00	368.24
629.00	408.81
630.00	420.52
631.00	440.02
632.00	382.29
633.00	388.53
634.00	401.01
635.00	484.49
636.00	553.15
637.00	602.30
638.00	589.81
639.00	572.65
640.00	501.65
641.00	478.25
642.00	434.56
643.00	436.90
644.00	427.54
645.00	439.24
646.00	422.86
647.00	422.86
648.00	394.77
649.00	428.32
650.00	428.32
651.00	452.50
652.00	415.06
653.00	379.95
654.00	401.79
655.00	402.57
656.00	441.58
657.00	377.61
658.00	367.46
659.00	355.76
660.00	374.49
661.00	393.21
662.00	405.69
663.00	401.79
664.00	394.77
665.00	410.37
666.00	404.91
667.00	416.62
668.00	395.55
669.00	417.40
670.00	411.15
671.00	401.79
672.00	401.79
673.00	422.08
674.00	446.26
675.00	450.16
676.00	450.16
677.00	461.87
678.00	457.18
679.00	453.28
680.00	446.26
681.00	440.80
682.00	422.08
683.00	405.69
684.00	398.67
685.00	422.86
686.00	413.49
687.00	418.18
688.00	393.21
689.00	397.11
690.00	399.45
691.00	389.31
692.00	390.87
693.00	380.73
694.00	394.77
695.00	397.89
696.00	410.37
697.00	416.62
698.00	408.03
699.00	398.67
700.00	403.35
701.00	389.31
702.00	398.67
703.00	396.33
704.00	417.40
705.00	415.06
706.00	436.12
707.00	423.64
708.00	412.71
709.00	378.39
710.00	379.17
711.00	368.24
712.00	378.39
713.00	381.51
714.00	397.89
715.00	414.27
716.00	423.64
717.00	419.74
718.00	457.96
719.00	444.70
720.00	446.26
721.00	389.31
722.00	404.91
723.00	422.08
724.00	416.62
725.00	418.96
726.00	413.49
727.00	425.98
728.00	420.52
729.00	424.42
730.00	440.02
731.00	440.80
732.00	408.81
733.00	397.89
734.00	382.29
735.00	409.59
736.00	382.29
737.00	379.95
738.00	383.85
739.00	376.83
740.00	376.83
741.00	364.34
742.00	396.33
743.00	429.10
744.00	462.65
745.00	456.40
746.00	433.00
747.00	404.13
748.00	393.99
749.00	370.58
750.00	346.40
751.00	359.66
752.00	384.63
753.00	411.93
754.00	405.69
755.00	411.93
756.00	404.91
757.00	400.23
758.00	390.87
759.00	385.41
760.00	398.67
761.00	426.76
762.00	441.58
763.00	437.68
764.00	443.92
765.00	439.24
766.00	443.92
767.00	424.42
768.00	436.90
769.00	441.58
770.00	426.76
771.00	421.30
772.00	421.30
773.00	417.40
774.00	401.79
775.00	394.77
776.00	395.55
777.00	428.32
778.00	421.30
779.00	445.48
780.00	427.54
781.00	429.10
782.00	422.08
783.00	474.35
784.00	462.65
785.00	455.62
786.00	404.13
787.00	413.49
788.00	393.99
789.00	410.37
790.00	401.01
791.00	400.23
792.00	382.29
793.00	376.83
794.00	395.55
795.00	379.17
796.00	386.19
797.00	387.75
798.00	384.63
799.00	389.31
800.00	394.77
801.00	397.11
802.00	400.23
803.00	383.07
804.00	408.03
805.00	427.54
806.00	443.14
807.00	416.62
808.00	417.40
809.00	390.09
810.00	390.09
811.00	361.22
812.00	391.65
813.00	411.93
814.00	410.37
815.00	393.99
816.00	388.53
817.00	406.47
818.00	410.37
819.00	411.15
820.00	396.33
821.00	390.87
822.00	403.35
823.00	401.01
824.00	383.85
825.00	376.05
826.00	410.37
827.00	437.68
828.00	421.30
829.00	393.21
830.00	389.31
831.00	398.67
832.00	414.27
833.00	433.78
834.00	425.20
835.00	409.59
836.00	390.87
837.00	415.84
838.00	428.32
839.00	425.20
840.00	403.35
841.00	381.51
842.00	376.05
843.00	389.31
844.00	386.97
845.00	418.96
846.00	408.81
847.00	455.62
848.00	438.46
849.00	443.92
850.00	394.77
851.00	389.31
852.00	383.07
853.00	386.97
854.00	377.61
855.00	378.39
856.00	414.27
857.00	418.18
858.00	408.03
859.00	363.56
860.00	360.44
861.00	404.91
862.00	422.08
863.00	431.44
864.00	431.44
865.00	470.45
866.00	462.65
867.00	424.42
868.00	414.27
869.00	404.91
870.00	395.55
871.00	357.32
872.00	379.95
873.00	380.73
874.00	404.13
875.00	387.75
876.00	384.63
877.00	373.71
878.00	386.97
879.00	391.65
880.00	390.87
881.00	386.97
882.00	393.99
883.00	408.81
884.00	412.71
885.00	419.74
886.00	415.84
887.00	386.97
888.00	397.11
889.00	380.73
890.00	400.23
891.00	381.51
892.00	394.77
893.00	379.17
894.00	373.71
895.00	365.12
896.00	362.00
897.00	358.10
898.00	358.10
899.00	415.06
900.00	429.10
901.00	449.38
902.00	433.00
903.00	426.76
904.00	390.09
905.00	363.56
906.00	374.49
907.00	375.27
908.00	411.93
909.00	752.87
910.00	798.12
911.00	775.50
912.00	411.15
913.00	382.29
914.00	374.49
915.00	393.99
916.00	391.65
917.00	399.45
918.00	397.11
919.00	404.13
920.00	383.07
921.00	379.95
922.00	395.55
923.00	416.62
924.00	433.78
925.00	408.81
926.00	407.25
927.00	397.11
928.00	409.59
929.00	397.11
930.00	373.71
931.00	370.58
932.00	387.75
933.00	389.31
934.00	388.53
935.00	385.41
936.00	409.59
937.00	432.22
938.00	431.44
939.00	433.00
940.00	421.30
941.00	401.79
942.00	408.81
943.00	394.77
944.00	391.65
945.00	395.55
946.00	413.49
947.00	414.27
948.00	406.47
949.00	396.33
950.00	390.87
951.00	379.17
952.00	368.24
953.00	384.63
954.00	390.87
955.00	383.07
956.00	372.93
957.00	395.55
958.00	404.91
959.00	440.80
960.00	407.25
961.00	435.34
962.00	410.37
963.00	416.62
964.00	393.21
965.00	390.09
966.00	398.67
967.00	412.71
968.00	428.32
969.00	429.88
970.00	416.62
971.00	408.81
972.00	413.49
973.00	397.89
974.00	387.75
975.00	372.93
976.00	379.95
977.00	385.41
978.00	382.29
979.00	393.99
980.00	407.25
981.00	436.90
982.00	430.66
983.00	429.10
984.00	412.71
985.00	398.67
986.00	381.51
987.00	372.15
988.00	382.29
989.00	396.33
990.00	385.41
991.00	393.99
992.00	407.25
993.00	409.59
994.00	412.71
995.00	380.73
996.00	406.47
997.00	393.21
998.00	396.33
999.00	377.61
1000.00	379.95
1001.00	377.61
1002.00	367.46
1003.00	376.83
1004.00	376.05
1005.00	397.11
1006.00	378.39
1007.00	404.13
1008.00	416.62
1009.00	457.18
1010.00	464.99
1011.00	438.46
1012.00	436.12
1013.00	405.69
1014.00	392.43
1015.00	393.21
1016.00	404.91
1017.00	438.46
1018.00	396.33
1019.00	414.27
1020.00	414.27
1021.00	409.59
1022.00	389.31
1023.00	383.85
1024.00	413.49
1025.00	436.12
1026.00	418.96
1027.00	418.96
1028.00	399.45
1029.00	401.01
1030.00	384.63
1031.00	372.15
1032.00	375.27
1033.00	368.24
1034.00	338.60
1035.00	342.50
1036.00	366.68
1037.00	390.09
1038.00	374.49
1039.00	353.42
1040.00	376.83
1041.00	401.01
1042.00	389.31
1043.00	382.29
1044.00	372.15
1045.00	414.27
1046.00	406.47
1047.00	415.06
1048.00	380.73
1049.00	389.31
1050.00	369.02
1051.00	387.75
1052.00	385.41
1053.00	390.09
1054.00	372.93
1055.00	377.61
1056.00	383.85
1057.00	393.99
1058.00	403.35
1059.00	380.73
1060.00	362.00
1061.00	344.06
1062.00	357.32
1063.00	386.97
1064.00	408.81
1065.00	444.70
1066.00	445.48
1067.00	445.48
1068.00	415.06
1069.00	408.81
1070.00	383.85
1071.00	390.09
1072.00	379.17
1073.00	394.77
1074.00	398.67
1075.00	392.43
1076.00	377.61
1077.00	386.19
1078.00	391.65
1079.00	440.80
1080.00	427.54
1081.00	420.52
1082.00	382.29
1083.00	358.88
1084.00	418.18
1085.00	415.84
1086.00	455.62
1087.00	418.96
1088.00	447.82
1089.00	440.80
1090.00	429.10
1091.00	393.21
1092.00	397.89
1093.00	401.79
1094.00	422.08
1095.00	412.71
1096.00	423.64
1097.00	404.91
1098.00	407.25
1099.00	418.18
1100.00	417.40
1101.00	404.91
1102.00	385.41
1103.00	406.47
1104.00	415.84
1105.00	397.89
1106.00	376.05
1107.00	375.27
1108.00	390.87
1109.00	383.07
1110.00	370.58
1111.00	342.50
1112.00	347.96
1113.00	351.86
1114.00	372.15
1115.00	379.95
1116.00	385.41
1117.00	396.33
1118.00	394.77
1119.00	387.75
1120.00	386.97
1121.00	393.21
1122.00	440.80
1123.00	450.94
1124.00	465.77
1125.00	440.02
1126.00	401.01
1127.00	383.07
1128.00	383.07
1129.00	443.92
1130.00	450.94
1131.00	427.54
1132.00	388.53
1133.00	376.05
1134.00	369.80
1135.00	372.93
1136.00	412.71
1137.00	419.74
1138.00	424.42
1139.00	394.77
1140.00	389.31
1141.00	398.67
1142.00	393.21
1143.00	414.27
1144.00	418.18
1145.00	404.91
1146.00	420.52
1147.00	436.90
1148.00	457.96
1149.00	441.58
1150.00	429.10
1151.00	443.14
1152.00	433.00
1153.00	422.08
1154.00	389.31
1155.00	370.58
1156.00	381.51
1157.00	386.97
1158.00	420.52
1159.00	405.69
1160.00	435.34
1161.00	442.36
1162.00	439.24
1163.00	424.42
1164.00	432.22
1165.00	441.58
1166.00	457.96
1167.00	427.54
1168.00	422.08
1169.00	400.23
1170.00	411.93
1171.00	409.59
1172.00	411.93
1173.00	403.35
1174.00	405.69
1175.00	408.81
1176.00	414.27
1177.00	409.59
1178.00	397.11
1179.00	384.63
1180.00	392.43
1181.00	408.03
1182.00	433.00
1183.00	405.69
1184.00	415.84
1185.00	386.19
1186.00	413.49
1187.00	386.19
1188.00	397.11
1189.00	413.49
1190.00	417.40
1191.00	428.32
1192.00	395.55
1193.00	403.35
1194.00	422.08
1195.00	423.64
1196.00	421.30
1197.00	407.25
1198.00	433.00
1199.00	446.26
1200.00	439.24
1201.00	437.68
1202.00	443.14
1203.00	459.53
1204.00	443.92
1205.00	425.20
1206.00	385.41
1207.00	388.53
1208.00	412.71
1209.00	441.58
1210.00	441.58
1211.00	425.20
1212.00	403.35
1213.00	404.91
1214.00	391.65
1215.00	369.80
1216.00	367.46
1217.00	383.07
1218.00	407.25
1219.00	402.57
1220.00	372.93
1221.00	354.20
1222.00	354.98
1223.00	361.22
1224.00	401.79
1225.00	398.67
1226.00	415.84
1227.00	412.71
1228.00	428.32
1229.00	416.62
1230.00	422.86
1231.00	418.96
1232.00	450.16
1233.00	419.74
1234.00	429.88
1235.00	418.18
1236.00	442.36
1237.00	401.01
1238.00	398.67
1239.00	416.62
1240.00	443.92
1241.00	430.66
1242.00	429.88
1243.00	428.32
1244.00	437.68
1245.00	406.47
1246.00	409.59
1247.00	389.31
1248.00	372.15
1249.00	362.78
1250.00	385.41
1251.00	425.20
1252.00	450.94
1253.00	437.68
1254.00	423.64
1255.00	376.83
1256.00	369.02
1257.00	362.00
1258.00	378.39
1259.00	374.49
1260.00	374.49
1261.00	393.99
1262.00	425.20
1263.00	430.66
1264.00	433.00
1265.00	390.87
1266.00	399.45
1267.00	375.27
1268.00	403.35
1269.00	407.25
1270.00	439.24
1271.00	449.38
1272.00	431.44
1273.00	398.67
1274.00	386.19
1275.00	386.97
1276.00	431.44
1277.00	443.92
1278.00	446.26
1279.00	415.06
1280.00	387.75
1281.00	413.49
1282.00	417.40
1283.00	416.62
1284.00	402.57
1285.00	407.25
1286.00	420.52
1287.00	410.37
1288.00	436.90
1289.00	434.56
1290.00	432.22
1291.00	380.73
1292.00	383.07
1293.00	380.73
1294.00	396.33
1295.00	380.73
1296.00	377.61
1297.00	378.39
1298.00	406.47
1299.00	436.90
1300.00	428.32
1301.00	431.44
1302.00	424.42
1303.00	426.76
1304.00	409.59
1305.00	404.13
1306.00	408.03
1307.00	404.91
1308.00	390.87
1309.00	397.89
1310.00	416.62
1311.00	425.20
1312.00	417.40
1313.00	421.30
1314.00	413.49
1315.00	416.62
1316.00	401.79
1317.00	384.63
1318.00	369.02
1319.00	383.07
1320.00	406.47
1321.00	418.18
1322.00	397.89
1323.00	395.55
1324.00	408.03
1325.00	411.15
1326.00	428.32
1327.00	414.27
1328.00	439.24
1329.00	414.27
1330.00	421.30
1331.00	406.47
1332.00	418.96
1333.00	406.47
1334.00	419.74
1335.00	404.13
1336.00	411.15
1337.00	405.69
1338.00	412.71
1339.00	425.20
1340.00	372.93
1341.00	364.34
1342.00	361.22
1343.00	388.53
1344.00	397.11
1345.00	378.39
1346.00	390.09
1347.00	382.29
1348.00	393.21
1349.00	385.41
1350.00	382.29
1351.00	381.51
1352.00	381.51
1353.00	390.09
1354.00	393.21
1355.00	379.17
1356.00	386.19
1357.00	380.73
1358.00	408.03
1359.00	414.27
1360.00	401.79
1361.00	415.84
1362.00	397.11
1363.00	436.12
1364.00	418.18
1365.00	426.76
1366.00	425.20
1367.00	442.36
1368.00	454.84
1369.00	432.22
1370.00	413.49
1371.00	425.20
1372.00	409.59
1373.00	406.47
1374.00	408.03
1375.00	433.78
1376.00	468.89
1377.00	439.24
1378.00	429.10
1379.00	392.43
1380.00	379.95
1381.00	371.36
1382.00	381.51
1383.00	426.76
1384.00	433.78
1385.00	420.52
1386.00	386.97
1387.00	398.67
1388.00	374.49
1389.00	415.06
1390.00	436.12
1391.00	458.74
1392.00	434.56
1393.00	423.64
1394.00	435.34
1395.00	440.80
1396.00	427.54
1397.00	423.64
1398.00	410.37
1399.00	425.98
1400.00	420.52
1401.00	426.76
1402.00	408.81
1403.00	413.49
1404.00	388.53
1405.00	389.31
1406.00	389.31
1407.00	418.18
1408.00	418.96
1409.00	436.12
1410.00	409.59
1411.00	409.59
1412.00	409.59
1413.00	425.20
1414.00	426.76
1415.00	417.40
1416.00	413.49
1417.00	429.10
1418.00	440.02
1419.00	422.08
1420.00	434.56
1421.00	415.06
1422.00	443.14
1423.00	417.40
1424.00	428.32
1425.00	433.00
1426.00	406.47
1427.00	385.41
1428.00	356.54
1429.00	360.44
1430.00	385.41
1431.00	396.33
1432.00	428.32
1433.00	436.12
1434.00	440.02
1435.00	429.10
1436.00	410.37
1437.00	415.84
1438.00	388.53
1439.00	382.29
1440.00	376.83
1441.00	425.98
1442.00	434.56
1443.00	429.10
1444.00	387.75
1445.00	372.93
1446.00	374.49
1447.00	378.39
1448.00	376.83
1449.00	372.93
1450.00	379.95
1451.00	367.46
1452.00	368.24
1453.00	384.63
1454.00	431.44
1455.00	438.46
1456.00	414.27
1457.00	382.29
1458.00	446.26
1459.00	448.60
1460.00	470.45
1461.00	392.43
1462.00	409.59
1463.00	395.55
1464.00	419.74
1465.00	422.08
1466.00	413.49
1467.00	422.08
1468.00	443.14
1469.00	461.87
1470.00	419.74
1471.00	385.41
1472.00	397.89
1473.00	433.78
1474.00	433.78
1475.00	411.15
1476.00	395.55
1477.00	390.87
1478.00	408.81
1479.00	421.30
1480.00	427.54
1481.00	400.23
1482.00	378.39
1483.00	379.17
1484.00	398.67
1485.00	422.86
1486.00	423.64
1487.00	411.93
1488.00	392.43
1489.00	401.79
1490.00	393.21
1491.00	413.49
1492.00	397.11
1493.00	409.59
1494.00	395.55
1495.00	402.57
1496.00	415.06
1497.00	419.74
1498.00	422.08
1499.00	402.57
1500.00	388.53
1501.00	379.95
1502.00	385.41
1503.00	391.65
1504.00	393.21
1505.00	399.45
1506.00	405.69
1507.00	396.33
1508.00	381.51
1509.00	363.56
1510.00	358.88
1511.00	362.78
1512.00	362.78
1513.00	380.73
1514.00	392.43
1515.00	394.77
1516.00	405.69
1517.00	404.91
1518.00	393.99
1519.00	363.56
1520.00	345.62
1521.00	367.46
1522.00	398.67
1523.00	397.11
1524.00	395.55
1525.00	379.17
1526.00	405.69
1527.00	439.24
1528.00	429.88
1529.00	403.35
1530.00	362.00
1531.00	360.44
1532.00	383.07
1533.00	387.75
1534.00	398.67
1535.00	404.13
1536.00	419.74
1537.00	433.78
1538.00	411.15
1539.00	416.62
1540.00	404.91
1541.00	415.84
1542.00	410.37
1543.00	404.13
1544.00	370.58
1545.00	359.66
1546.00	376.05
1547.00	408.81
1548.00	421.30
1549.00	404.13
1550.00	405.69
1551.00	383.85
1552.00	386.97
1553.00	376.83
1554.00	407.25
1555.00	376.05
1556.00	409.59
1557.00	389.31
1558.00	425.20
1559.00	418.96
1560.00	397.89
1561.00	389.31
1562.00	364.34
1563.00	408.81
1564.00	404.13
1565.00	393.99
1566.00	379.17
1567.00	383.85
1568.00	405.69
1569.00	405.69
1570.00	423.64
1571.00	429.10
1572.00	430.66
1573.00	412.71
1574.00	410.37
1575.00	405.69
1576.00	415.84
1577.00	410.37
1578.00	414.27
1579.00	428.32
1580.00	434.56
1581.00	436.12
1582.00	412.71
1583.00	401.01
1584.00	390.87
1585.00	384.63
1586.00	382.29
1587.00	385.41
1588.00	414.27
1589.00	402.57
1590.00	418.18
1591.00	399.45
1592.00	416.62
1593.00	425.20
1594.00	445.48
1595.00	433.00
1596.00	411.93
1597.00	397.11
1598.00	379.95
1599.00	363.56
1600.00	348.74
1601.00	349.52
1602.00	355.76
1603.00	375.27
1604.00	393.99
1605.00	395.55
1606.00	389.31
1607.00	402.57
1608.00	375.27
1609.00	355.76
1610.00	351.08
1611.00	394.77
1612.00	415.84
1613.00	416.62
1614.00	400.23
1615.00	378.39
1616.00	390.09
1617.00	380.73
1618.00	402.57
1619.00	398.67
1620.00	425.20
1621.00	436.90
1622.00	439.24
1623.00	429.10
1624.00	436.90
1625.00	420.52
1626.00	415.84
1627.00	412.71
1628.00	433.00
1629.00	421.30
1630.00	410.37
1631.00	373.71
1632.00	390.87
1633.00	364.34
1634.00	393.21
1635.00	411.93
1636.00	435.34
1637.00	421.30
1638.00	407.25
1639.00	384.63
1640.00	380.73
1641.00	367.46
1642.00	386.19
1643.00	386.19
1644.00	401.01
1645.00	403.35
1646.00	424.42
1647.00	404.13
1648.00	410.37
1649.00	401.79
1650.00	406.47
1651.00	393.21
1652.00	402.57
1653.00	397.89
1654.00	410.37
1655.00	395.55
1656.00	386.19
1657.00	388.53
1658.00	383.07
1659.00	393.99
1660.00	379.17
1661.00	387.75
1662.00	394.77
1663.00	415.06
1664.00	421.30
1665.00	427.54
1666.00	415.84
1667.00	400.23
1668.00	391.65
1669.00	399.45
1670.00	405.69
1671.00	408.81
1672.00	390.09
1673.00	382.29
1674.00	359.66
1675.00	379.95
1676.00	389.31
1677.00	408.03
1678.00	387.75
1679.00	393.21
1680.00	404.13
1681.00	428.32
1682.00	431.44
1683.00	414.27
1684.00	412.71
1685.00	508.68
1686.00	655.35
1687.00	871.46
1688.00	1094.59
1689.00	1296.66
1690.00	1411.34
1691.00	1416.80
1692.00	1358.29
1693.00	1142.18
1694.00	881.60
1695.00	662.37
1696.00	550.81
1697.00	501.65
1698.00	452.50
1699.00	414.27
1700.00	387.75
1701.00	347.18
1702.00	369.02
1703.00	401.01
1704.00	428.32
1705.00	447.04
1706.00	413.49
1707.00	415.06
1708.00	397.11
1709.00	400.23
1710.00	397.11
1711.00	382.29
1712.00	373.71
1713.00	359.66
1714.00	364.34
1715.00	374.49
1716.00	369.02
1717.00	374.49
1718.00	376.05
1719.00	401.01
1720.00	389.31
1721.00	413.49
1722.00	412.71
1723.00	443.92
1724.00	408.03
1725.00	417.40
1726.00	415.84
1727.00	422.08
1728.00	408.03
1729.00	417.40
1730.00	420.52
1731.00	423.64
1732.00	401.01
1733.00	413.49
1734.00	394.77
1735.00	413.49
1736.00	397.89
1737.00	423.64
1738.00	400.23
1739.00	383.07
1740.00	369.80
1741.00	379.95
1742.00	375.27
1743.00	357.32
1744.00	333.92
1745.00	369.80
1746.00	386.19
1747.00	410.37
1748.00	372.93
1749.00	376.05
1750.00	363.56
1751.00	386.19
1752.00	381.51
1753.00	390.09
1754.00	376.83
1755.00	384.63
1756.00	398.67
1757.00	405.69
1758.00	418.18
1759.00	397.11
1760.00	414.27
1761.00	393.21
1762.00	392.43
1763.00	410.37
1764.00	433.00
1765.00	427.54
1766.00	414.27
1767.00	394.77
1768.00	391.65
1769.00	369.80
1770.00	381.51
1771.00	402.57
1772.00	402.57
1773.00	404.13
1774.00	379.95
1775.00	377.61
1776.00	379.95
1777.00	403.35
1778.00	418.96
1779.00	403.35
1780.00	415.06
1781.00	421.30
1782.00	464.21
1783.00	470.45
1784.00	447.82
1785.00	413.49
1786.00	367.46
1787.00	393.99
1788.00	386.19
1789.00	431.44
1790.00	423.64
1791.00	426.76
1792.00	393.21
1793.00	379.95
1794.00	399.45
1795.00	376.05
1796.00	399.45
1797.00	404.13
1798.00	442.36
1799.00	434.56
1800.00	415.06
1801.00	414.27
1802.00	428.32
1803.00	438.46
1804.00	457.96
1805.00	438.46
1806.00	429.10
1807.00	444.70
1808.00	437.68
1809.00	439.24
1810.00	405.69
1811.00	401.01
1812.00	398.67
1813.00	386.97
1814.00	378.39
1815.00	375.27
1816.00	388.53
1817.00	409.59
1818.00	419.74
1819.00	395.55
1820.00	400.23
1821.00	379.17
1822.00	388.53
1823.00	396.33
1824.00	417.40
1825.00	429.88
1826.00	425.20
1827.00	411.15
1828.00	410.37
1829.00	402.57
1830.00	429.10
1831.00	421.30
1832.00	393.99
1833.00	373.71
1834.00	353.42
1835.00	365.90
1836.00	356.54
1837.00	387.75
1838.00	406.47
1839.00	407.25
1840.00	348.74
1841.00	332.36
1842.00	352.64
1843.00	394.77
1844.00	404.13
1845.00	402.57
1846.00	397.89
1847.00	403.35
1848.00	380.73
1849.00	397.11
1850.00	368.24
1851.00	383.85
1852.00	387.75
1853.00	402.57
1854.00	383.07
1855.00	362.78
1856.00	384.63
1857.00	379.95
1858.00	385.41
1859.00	389.31
1860.00	408.81
1861.00	415.06
1862.00	379.17
1863.00	402.57
1864.00	386.97
1865.00	436.12
1866.00	410.37
1867.00	421.30
1868.00	377.61
1869.00	391.65
1870.00	401.01
1871.00	411.15
1872.00	403.35
1873.00	395.55
1874.00	423.64
1875.00	418.96
1876.00	395.55
1877.00	378.39
1878.00	393.99
1879.00	411.93
1880.00	402.57
1881.00	393.21
1882.00	419.74
1883.00	427.54
1884.00	433.00
1885.00	430.66
1886.00	412.71
1887.00	397.11
1888.00	397.89
1889.00	399.45
1890.00	408.81
1891.00	408.81
1892.00	427.54
1893.00	425.98
1894.00	403.35
1895.00	401.79
1896.00	413.49
1897.00	426.76
1898.00	396.33
1899.00	377.61
1900.00	389.31
1901.00	408.03
1902.00	417.40
1903.00	389.31
1904.00	369.80
1905.00	369.02
1906.00	368.24
1907.00	385.41
1908.00	397.89
1909.00	432.22
1910.00	423.64
1911.00	409.59
1912.00	390.09
1913.00	383.85
1914.00	372.93
1915.00	387.75
1916.00	404.91
1917.00	408.81
1918.00	393.99
1919.00	400.23
1920.00	418.96
1921.00	413.49
1922.00	428.32
1923.00	420.52
1924.00	433.00
1925.00	414.27
1926.00	384.63
1927.00	372.15
1928.00	348.74
1929.00	372.15
1930.00	398.67
1931.00	429.88
1932.00	430.66
1933.00	401.79
1934.00	372.93
1935.00	381.51
1936.00	412.71
1937.00	415.84
1938.00	397.11
1939.00	382.29
1940.00	398.67
1941.00	382.29
1942.00	375.27
1943.00	396.33
1944.00	427.54
1945.00	409.59
1946.00	392.43
1947.00	381.51
1948.00	400.23
1949.00	394.77
1950.00	401.01
1951.00	386.19
1952.00	385.41
1953.00	376.05
1954.00	369.80
1955.00	387.75
1956.00	404.91
1957.00	395.55
1958.00	371.36
1959.00	369.02
1960.00	373.71
1961.00	386.19
1962.00	383.85
1963.00	417.40
1964.00	420.52
1965.00	422.86
1966.00	401.79
1967.00	376.05
1968.00	369.02
1969.00	390.09
1970.00	406.47
1971.00	411.93
1972.00	385.41
1973.00	406.47
1974.00	394.77
1975.00	396.33
1976.00	351.08
1977.00	354.98
1978.00	369.80
1979.00	411.15
1980.00	425.98
1981.00	411.15
1982.00	411.15
1983.00	377.61
1984.00	376.83
1985.00	378.39
1986.00	407.25
1987.00	422.86
1988.00	400.23
1989.00	393.21
1990.00	390.87
1991.00	408.03
1992.00	421.30
1993.00	424.42
1994.00	417.40
1995.00	402.57
1996.00	385.41
1997.00	378.39
1998.00	388.53
1999.00	397.11
2000.00	389.31
2001.00	364.34
2002.00	386.97
2003.00	399.45
2004.00	414.27
2005.00	373.71
2006.00	373.71
2007.00	364.34
2008.00	358.10
2009.00	353.42
2010.00	343.28
2011.00	358.10
2012.00	372.15
2013.00	386.19
2014.00	403.35
2015.00	405.69
2016.00	409.59
2017.00	401.01
2018.00	370.58
2019.00	365.90
2020.00	361.22
2021.00	364.34
2022.00	388.53
2023.00	392.43
2024.00	413.49
2025.00	384.63
2026.00	397.89
2027.00	371.36
2028.00	381.51
2029.00	376.83
2030.00	394.77
2031.00	387.75
2032.00	375.27
2033.00	381.51
2034.00	384.63
2035.00	381.51
2036.00	375.27
2037.00	383.85
2038.00	373.71
2039.00	368.24
2040.00	365.90
2041.00	386.97
2042.00	397.11
2043.00	397.89
2044.00	401.01
2045.00	404.91
2046.00	391.65
2047.00	360.44
>>>>>End Processed Spectral Data<<<<<
