SpectraSuite Data File
++++++++++++++++++++++++++++++++++++
Date: Thu Nov 16 14:27:25 EST 2017
User: cheriyan
Dark Spectrum Present: No
Reference Spectrum Present: No
Number of Sampled Component Spectra: 1
Spectrometers: USB2+H05261
Integration Time (usec): 100000 (USB2+H05261)
Spectra Averaged: 1 (USB2+H05261)
Boxcar Smoothing: 1 (USB2+H05261)
Correct for Electrical Dark: No (USB2+H05261)
Strobe/Lamp Enabled: No (USB2+H05261)
Correct for Detector Non-linearity: No (USB2+H05261)
Correct for Stray Light: No (USB2+H05261)
Number of Pixels in Processed Spectrum: 2048
>>>>>Begin Processed Spectral Data<<<<<
0.00	250.44
1.00	250.44
2.00	249.66
3.00	241.86
4.00	272.28
5.00	248.88
6.00	249.66
7.00	216.89
8.00	234.05
9.00	227.03
10.00	215.33
11.00	203.63
12.00	194.26
13.00	212.99
14.00	226.25
15.00	241.86
16.00	189.58
17.00	198.95
18.00	195.04
19.00	250.44
20.00	251.22
21.00	268.38
22.00	280.08
23.00	294.91
24.00	271.50
25.00	262.14
26.00	277.74
27.00	338.60
28.00	361.22
29.00	357.32
30.00	349.52
31.00	308.17
32.00	301.15
33.00	276.96
34.00	327.68
35.00	361.22
36.00	393.21
37.00	383.85
38.00	369.80
39.00	371.36
40.00	400.23
41.00	415.84
42.00	420.52
43.00	412.71
44.00	405.69
45.00	393.21
46.00	367.46
47.00	373.71
48.00	413.49
49.00	438.46
50.00	428.32
51.00	385.41
52.00	409.59
53.00	415.84
54.00	436.90
55.00	392.43
56.00	367.46
57.00	351.08
58.00	355.76
59.00	367.46
60.00	354.20
61.00	360.44
62.00	361.22
63.00	404.13
64.00	390.09
65.00	396.33
66.00	388.53
67.00	416.62
68.00	425.20
69.00	406.47
70.00	414.27
71.00	404.91
72.00	404.13
73.00	350.30
74.00	362.00
75.00	367.46
76.00	398.67
77.00	393.21
78.00	422.08
79.00	430.66
80.00	416.62
81.00	369.80
82.00	388.53
83.00	402.57
84.00	427.54
85.00	397.89
86.00	419.74
87.00	453.28
88.00	479.81
89.00	444.70
90.00	406.47
91.00	394.77
92.00	385.41
93.00	400.23
94.00	391.65
95.00	401.01
96.00	407.25
97.00	410.37
98.00	401.01
99.00	357.32
100.00	336.26
101.00	362.00
102.00	402.57
103.00	425.20
104.00	432.22
105.00	409.59
106.00	386.97
107.00	372.15
108.00	374.49
109.00	399.45
110.00	401.01
111.00	388.53
112.00	386.19
113.00	355.76
114.00	352.64
115.00	344.84
116.00	361.22
117.00	391.65
118.00	402.57
119.00	424.42
120.00	405.69
121.00	393.21
122.00	380.73
123.00	369.02
124.00	363.56
125.00	376.05
126.00	365.12
127.00	379.95
128.00	358.88
129.00	395.55
130.00	403.35
131.00	416.62
132.00	403.35
133.00	377.61
134.00	359.66
135.00	377.61
136.00	406.47
137.00	418.18
138.00	411.15
139.00	402.57
140.00	402.57
141.00	416.62
142.00	426.76
143.00	404.91
144.00	390.09
145.00	373.71
146.00	394.77
147.00	386.19
148.00	373.71
149.00	372.93
150.00	381.51
151.00	384.63
152.00	408.03
153.00	396.33
154.00	428.32
155.00	408.03
156.00	415.06
157.00	383.85
158.00	403.35
159.00	390.09
160.00	401.01
161.00	372.15
162.00	385.41
163.00	365.90
164.00	379.95
165.00	372.93
166.00	393.21
167.00	382.29
168.00	388.53
169.00	393.99
170.00	415.06
171.00	440.02
172.00	423.64
173.00	427.54
174.00	420.52
175.00	427.54
176.00	405.69
177.00	383.07
178.00	371.36
179.00	368.24
180.00	389.31
181.00	395.55
182.00	416.62
183.00	379.95
184.00	379.17
185.00	349.52
186.00	365.90
187.00	380.73
188.00	388.53
189.00	409.59
190.00	394.77
191.00	411.15
192.00	393.99
193.00	397.11
194.00	399.45
195.00	404.13
196.00	419.74
197.00	426.76
198.00	438.46
199.00	409.59
200.00	367.46
201.00	345.62
202.00	368.24
203.00	383.85
204.00	369.02
205.00	376.05
206.00	386.19
207.00	379.95
208.00	360.44
209.00	372.15
210.00	418.18
211.00	434.56
212.00	421.30
213.00	385.41
214.00	380.73
215.00	379.95
216.00	392.43
217.00	386.97
218.00	417.40
219.00	429.88
220.00	397.11
221.00	363.56
222.00	344.06
223.00	383.07
224.00	392.43
225.00	411.15
226.00	401.01
227.00	377.61
228.00	337.82
229.00	330.02
230.00	346.40
231.00	379.17
232.00	397.11
233.00	403.35
234.00	401.79
235.00	390.09
236.00	393.21
237.00	401.01
238.00	393.99
239.00	371.36
240.00	371.36
241.00	387.75
242.00	428.32
243.00	411.93
244.00	447.82
245.00	410.37
246.00	425.98
247.00	388.53
248.00	400.23
249.00	385.41
250.00	380.73
251.00	383.85
252.00	411.93
253.00	440.80
254.00	446.26
255.00	422.08
256.00	388.53
257.00	366.68
258.00	381.51
259.00	393.21
260.00	401.79
261.00	397.89
262.00	389.31
263.00	406.47
264.00	407.25
265.00	408.81
266.00	396.33
267.00	404.13
268.00	404.13
269.00	392.43
270.00	382.29
271.00	371.36
272.00	388.53
273.00	393.21
274.00	408.03
275.00	395.55
276.00	407.25
277.00	403.35
278.00	424.42
279.00	433.00
280.00	455.62
281.00	440.80
282.00	402.57
283.00	394.77
284.00	397.11
285.00	408.81
286.00	420.52
287.00	427.54
288.00	401.01
289.00	389.31
290.00	379.17
291.00	415.84
292.00	433.00
293.00	427.54
294.00	414.27
295.00	373.71
296.00	380.73
297.00	372.93
298.00	386.19
299.00	406.47
300.00	422.08
301.00	422.08
302.00	418.18
303.00	395.55
304.00	409.59
305.00	408.03
306.00	435.34
307.00	429.10
308.00	437.68
309.00	429.88
310.00	423.64
311.00	406.47
312.00	396.33
313.00	376.83
314.00	385.41
315.00	398.67
316.00	421.30
317.00	381.51
318.00	362.00
319.00	347.96
320.00	372.15
321.00	391.65
322.00	391.65
323.00	383.85
324.00	369.02
325.00	381.51
326.00	391.65
327.00	400.23
328.00	398.67
329.00	395.55
330.00	369.80
331.00	364.34
332.00	379.95
333.00	411.93
334.00	428.32
335.00	430.66
336.00	407.25
337.00	407.25
338.00	377.61
339.00	375.27
340.00	376.83
341.00	396.33
342.00	422.08
343.00	409.59
344.00	431.44
345.00	422.86
346.00	425.20
347.00	410.37
348.00	404.13
349.00	411.93
350.00	393.99
351.00	429.10
352.00	429.10
353.00	423.64
354.00	397.89
355.00	362.78
356.00	384.63
357.00	382.29
358.00	396.33
359.00	380.73
360.00	380.73
361.00	402.57
362.00	427.54
363.00	413.49
364.00	407.25
365.00	390.87
366.00	433.00
367.00	426.76
368.00	436.90
369.00	390.87
370.00	395.55
371.00	389.31
372.00	401.79
373.00	403.35
374.00	436.90
375.00	449.38
376.00	407.25
377.00	364.34
378.00	344.84
379.00	376.05
380.00	347.96
381.00	360.44
382.00	356.54
383.00	404.13
384.00	425.20
385.00	450.16
386.00	433.00
387.00	422.86
388.00	408.03
389.00	454.84
390.00	455.62
391.00	469.67
392.00	433.00
393.00	422.86
394.00	406.47
395.00	404.91
396.00	417.40
397.00	421.30
398.00	415.84
399.00	401.01
400.00	396.33
401.00	378.39
402.00	376.83
403.00	379.95
404.00	402.57
405.00	390.87
406.00	395.55
407.00	388.53
408.00	417.40
409.00	390.09
410.00	390.87
411.00	366.68
412.00	404.13
413.00	395.55
414.00	412.71
415.00	396.33
416.00	390.87
417.00	390.09
418.00	387.75
419.00	403.35
420.00	392.43
421.00	378.39
422.00	373.71
423.00	365.12
424.00	400.23
425.00	423.64
426.00	441.58
427.00	436.90
428.00	412.71
429.00	404.13
430.00	379.17
431.00	404.13
432.00	402.57
433.00	425.20
434.00	417.40
435.00	426.76
436.00	425.98
437.00	418.18
438.00	442.36
439.00	453.28
440.00	448.60
441.00	422.08
442.00	429.88
443.00	429.88
444.00	424.42
445.00	385.41
446.00	366.68
447.00	341.72
448.00	347.96
449.00	383.07
450.00	408.03
451.00	408.03
452.00	392.43
453.00	405.69
454.00	404.91
455.00	380.73
456.00	384.63
457.00	385.41
458.00	410.37
459.00	408.03
460.00	393.21
461.00	371.36
462.00	377.61
463.00	415.06
464.00	445.48
465.00	445.48
466.00	433.00
467.00	429.88
468.00	430.66
469.00	449.38
470.00	441.58
471.00	414.27
472.00	409.59
473.00	383.85
474.00	397.11
475.00	407.25
476.00	424.42
477.00	399.45
478.00	393.99
479.00	423.64
480.00	429.88
481.00	417.40
482.00	406.47
483.00	409.59
484.00	397.89
485.00	386.97
486.00	391.65
487.00	391.65
488.00	372.93
489.00	379.17
490.00	391.65
491.00	403.35
492.00	406.47
493.00	400.23
494.00	418.18
495.00	428.32
496.00	436.12
497.00	447.04
498.00	435.34
499.00	411.93
500.00	408.81
501.00	411.15
502.00	424.42
503.00	411.93
504.00	425.98
505.00	434.56
506.00	451.72
507.00	428.32
508.00	425.98
509.00	433.00
510.00	454.06
511.00	445.48
512.00	412.71
513.00	418.96
514.00	401.01
515.00	401.01
516.00	391.65
517.00	436.12
518.00	461.09
519.00	457.96
520.00	419.74
521.00	386.97
522.00	397.11
523.00	425.98
524.00	431.44
525.00	405.69
526.00	388.53
527.00	411.93
528.00	414.27
529.00	422.08
530.00	393.21
531.00	389.31
532.00	409.59
533.00	415.06
534.00	447.04
535.00	422.86
536.00	432.22
537.00	413.49
538.00	442.36
539.00	450.16
540.00	437.68
541.00	423.64
542.00	408.03
543.00	441.58
544.00	422.08
545.00	435.34
546.00	387.75
547.00	404.13
548.00	384.63
549.00	387.75
550.00	358.10
551.00	383.07
552.00	410.37
553.00	404.91
554.00	374.49
555.00	359.66
556.00	379.17
557.00	394.77
558.00	410.37
559.00	398.67
560.00	397.89
561.00	372.93
562.00	368.24
563.00	386.19
564.00	399.45
565.00	397.89
566.00	371.36
567.00	376.05
568.00	385.41
569.00	388.53
570.00	395.55
571.00	421.30
572.00	447.04
573.00	448.60
574.00	425.98
575.00	404.91
576.00	406.47
577.00	408.81
578.00	388.53
579.00	366.68
580.00	360.44
581.00	387.75
582.00	397.11
583.00	397.89
584.00	362.00
585.00	397.11
586.00	413.49
587.00	439.24
588.00	403.35
589.00	409.59
590.00	398.67
591.00	402.57
592.00	376.83
593.00	379.95
594.00	354.20
595.00	351.86
596.00	376.05
597.00	394.77
598.00	393.99
599.00	371.36
600.00	372.15
601.00	408.81
602.00	394.77
603.00	422.08
604.00	394.77
605.00	411.93
606.00	404.13
607.00	408.81
608.00	446.26
609.00	445.48
610.00	443.92
611.00	403.35
612.00	376.83
613.00	365.90
614.00	338.60
615.00	341.72
616.00	351.08
617.00	397.11
618.00	388.53
619.00	393.21
620.00	406.47
621.00	443.92
622.00	441.58
623.00	404.13
624.00	383.85
625.00	391.65
626.00	418.18
627.00	408.03
628.00	383.85
629.00	387.75
630.00	390.09
631.00	414.27
632.00	419.74
633.00	437.68
634.00	462.65
635.00	518.82
636.00	606.20
637.00	680.32
638.00	699.82
639.00	662.37
640.00	605.42
641.00	539.10
642.00	482.93
643.00	440.02
644.00	425.98
645.00	418.18
646.00	404.13
647.00	369.02
648.00	389.31
649.00	391.65
650.00	432.22
651.00	441.58
652.00	472.01
653.00	449.38
654.00	461.87
655.00	430.66
656.00	454.84
657.00	386.97
658.00	367.46
659.00	351.86
660.00	400.23
661.00	407.25
662.00	418.96
663.00	386.19
664.00	393.99
665.00	380.73
666.00	369.02
667.00	379.17
668.00	378.39
669.00	388.53
670.00	379.17
671.00	389.31
672.00	415.84
673.00	426.76
674.00	415.06
675.00	434.56
676.00	451.72
677.00	468.11
678.00	469.67
679.00	480.59
680.00	479.03
681.00	469.67
682.00	425.20
683.00	421.30
684.00	412.71
685.00	439.24
686.00	434.56
687.00	404.91
688.00	392.43
689.00	387.75
690.00	404.91
691.00	413.49
692.00	411.93
693.00	450.94
694.00	427.54
695.00	438.46
696.00	411.93
697.00	425.98
698.00	429.10
699.00	394.77
700.00	382.29
701.00	383.07
702.00	388.53
703.00	389.31
704.00	383.85
705.00	392.43
706.00	408.81
707.00	402.57
708.00	410.37
709.00	399.45
710.00	379.17
711.00	378.39
712.00	397.89
713.00	416.62
714.00	409.59
715.00	411.15
716.00	433.00
717.00	446.26
718.00	457.18
719.00	436.90
720.00	454.84
721.00	455.62
722.00	451.72
723.00	437.68
724.00	431.44
725.00	458.75
726.00	460.31
727.00	433.78
728.00	393.99
729.00	382.29
730.00	404.13
731.00	407.25
732.00	431.44
733.00	399.45
734.00	397.11
735.00	365.90
736.00	377.61
737.00	366.68
738.00	386.19
739.00	393.99
740.00	400.23
741.00	391.65
742.00	389.31
743.00	434.56
744.00	430.66
745.00	433.78
746.00	410.37
747.00	417.40
748.00	417.40
749.00	416.62
750.00	422.86
751.00	429.88
752.00	409.59
753.00	411.15
754.00	392.43
755.00	422.08
756.00	411.93
757.00	421.30
758.00	408.03
759.00	392.43
760.00	396.33
761.00	384.63
762.00	397.11
763.00	379.17
764.00	391.65
765.00	387.75
766.00	373.71
767.00	360.44
768.00	367.46
769.00	377.61
770.00	404.91
771.00	408.03
772.00	447.82
773.00	420.52
774.00	396.33
775.00	393.99
776.00	416.62
777.00	433.00
778.00	408.03
779.00	394.77
780.00	407.25
781.00	432.22
782.00	443.92
783.00	488.39
784.00	493.85
785.00	498.53
786.00	431.44
787.00	397.11
788.00	393.99
789.00	415.84
790.00	411.93
791.00	403.35
792.00	393.99
793.00	402.57
794.00	384.63
795.00	377.61
796.00	379.17
797.00	401.79
798.00	406.47
799.00	415.84
800.00	395.55
801.00	385.41
802.00	383.07
803.00	382.29
804.00	385.41
805.00	386.97
806.00	404.91
807.00	415.84
808.00	422.86
809.00	417.40
810.00	416.62
811.00	407.25
812.00	407.25
813.00	424.42
814.00	414.27
815.00	417.40
816.00	383.07
817.00	398.67
818.00	400.23
819.00	398.67
820.00	354.98
821.00	345.62
822.00	369.02
823.00	434.56
824.00	429.10
825.00	408.03
826.00	387.75
827.00	386.19
828.00	397.89
829.00	384.63
830.00	386.19
831.00	379.95
832.00	380.73
833.00	384.63
834.00	365.12
835.00	375.27
836.00	402.57
837.00	435.34
838.00	439.24
839.00	411.15
840.00	409.59
841.00	401.01
842.00	412.71
843.00	417.40
844.00	435.34
845.00	420.52
846.00	403.35
847.00	368.24
848.00	394.77
849.00	425.20
850.00	443.14
851.00	401.01
852.00	359.66
853.00	338.60
854.00	366.68
855.00	397.11
856.00	390.87
857.00	383.85
858.00	369.02
859.00	395.55
860.00	387.75
861.00	362.78
862.00	366.68
863.00	372.15
864.00	404.91
865.00	404.13
866.00	425.20
867.00	406.47
868.00	415.06
869.00	404.91
870.00	422.08
871.00	391.65
872.00	372.93
873.00	362.78
874.00	393.99
875.00	423.64
876.00	432.22
877.00	416.62
878.00	435.34
879.00	443.92
880.00	445.48
881.00	412.71
882.00	415.84
883.00	436.90
884.00	422.86
885.00	422.86
886.00	398.67
887.00	418.96
888.00	407.25
889.00	408.81
890.00	418.18
891.00	409.59
892.00	401.79
893.00	396.33
894.00	390.09
895.00	409.59
896.00	402.57
897.00	404.91
898.00	379.17
899.00	379.95
900.00	403.35
901.00	425.20
902.00	429.88
903.00	418.18
904.00	403.35
905.00	391.65
906.00	401.79
907.00	383.85
908.00	394.77
909.00	731.03
910.00	753.65
911.00	733.37
912.00	401.01
913.00	404.13
914.00	419.74
915.00	421.30
916.00	413.49
917.00	395.55
918.00	374.49
919.00	396.33
920.00	420.52
921.00	442.36
922.00	414.27
923.00	395.55
924.00	406.47
925.00	430.66
926.00	422.08
927.00	388.53
928.00	385.41
929.00	412.71
930.00	428.32
931.00	412.71
932.00	414.27
933.00	401.79
934.00	404.13
935.00	384.63
936.00	376.05
937.00	373.71
938.00	392.43
939.00	394.77
940.00	418.18
941.00	411.15
942.00	433.78
943.00	418.18
944.00	417.40
945.00	412.71
946.00	418.18
947.00	418.96
948.00	422.86
949.00	415.84
950.00	421.30
951.00	411.93
952.00	433.00
953.00	402.57
954.00	413.49
955.00	413.49
956.00	439.24
957.00	438.46
958.00	425.98
959.00	425.98
960.00	418.18
961.00	421.30
962.00	391.65
963.00	374.49
964.00	365.12
965.00	412.71
966.00	432.22
967.00	427.54
968.00	418.96
969.00	423.64
970.00	430.66
971.00	433.00
972.00	400.23
973.00	386.97
974.00	363.56
975.00	371.36
976.00	378.39
977.00	383.07
978.00	385.41
979.00	386.19
980.00	373.71
981.00	384.63
982.00	383.85
983.00	404.91
984.00	420.52
985.00	404.91
986.00	404.91
987.00	366.68
988.00	372.93
989.00	370.58
990.00	397.11
991.00	433.00
992.00	427.54
993.00	387.75
994.00	353.42
995.00	358.10
996.00	408.81
997.00	419.74
998.00	423.64
999.00	421.30
1000.00	410.37
1001.00	397.11
1002.00	375.27
1003.00	401.79
1004.00	411.15
1005.00	430.66
1006.00	420.52
1007.00	429.10
1008.00	424.42
1009.00	447.04
1010.00	453.28
1011.00	440.80
1012.00	390.09
1013.00	377.61
1014.00	387.75
1015.00	404.91
1016.00	418.96
1017.00	439.24
1018.00	430.66
1019.00	397.89
1020.00	374.49
1021.00	396.33
1022.00	429.10
1023.00	419.74
1024.00	430.66
1025.00	416.62
1026.00	421.30
1027.00	411.93
1028.00	392.43
1029.00	376.83
1030.00	378.39
1031.00	398.67
1032.00	412.71
1033.00	403.35
1034.00	386.19
1035.00	402.57
1036.00	415.84
1037.00	439.24
1038.00	443.14
1039.00	427.54
1040.00	412.71
1041.00	415.06
1042.00	422.86
1043.00	433.00
1044.00	408.81
1045.00	443.92
1046.00	457.18
1047.00	467.33
1048.00	390.87
1049.00	353.42
1050.00	335.48
1051.00	359.66
1052.00	377.61
1053.00	387.75
1054.00	386.19
1055.00	376.05
1056.00	397.89
1057.00	407.25
1058.00	393.21
1059.00	368.24
1060.00	393.21
1061.00	401.79
1062.00	398.67
1063.00	393.21
1064.00	386.97
1065.00	393.99
1066.00	386.97
1067.00	415.84
1068.00	429.88
1069.00	442.36
1070.00	422.08
1071.00	416.62
1072.00	408.03
1073.00	418.18
1074.00	418.18
1075.00	407.25
1076.00	432.22
1077.00	424.42
1078.00	406.47
1079.00	419.74
1080.00	412.71
1081.00	429.88
1082.00	391.65
1083.00	409.59
1084.00	400.23
1085.00	394.77
1086.00	380.73
1087.00	394.77
1088.00	401.79
1089.00	421.30
1090.00	415.84
1091.00	429.88
1092.00	424.42
1093.00	425.20
1094.00	413.49
1095.00	420.52
1096.00	408.03
1097.00	415.06
1098.00	418.96
1099.00	427.54
1100.00	401.79
1101.00	379.95
1102.00	376.83
1103.00	377.61
1104.00	383.85
1105.00	369.80
1106.00	386.19
1107.00	379.95
1108.00	376.83
1109.00	361.22
1110.00	367.46
1111.00	372.93
1112.00	372.15
1113.00	378.39
1114.00	372.93
1115.00	385.41
1116.00	373.71
1117.00	390.87
1118.00	415.06
1119.00	434.56
1120.00	460.31
1121.00	431.44
1122.00	447.82
1123.00	447.82
1124.00	472.79
1125.00	457.18
1126.00	436.12
1127.00	412.71
1128.00	389.31
1129.00	391.65
1130.00	397.89
1131.00	384.63
1132.00	367.46
1133.00	350.30
1134.00	375.27
1135.00	384.63
1136.00	428.32
1137.00	435.34
1138.00	451.72
1139.00	436.12
1140.00	422.86
1141.00	390.09
1142.00	378.39
1143.00	390.09
1144.00	422.86
1145.00	441.58
1146.00	452.50
1147.00	424.42
1148.00	429.10
1149.00	408.03
1150.00	446.26
1151.00	446.26
1152.00	490.73
1153.00	453.28
1154.00	437.68
1155.00	379.95
1156.00	405.69
1157.00	409.59
1158.00	429.10
1159.00	420.52
1160.00	425.20
1161.00	448.60
1162.00	429.88
1163.00	415.06
1164.00	392.43
1165.00	424.42
1166.00	429.10
1167.00	405.69
1168.00	379.17
1169.00	366.68
1170.00	384.63
1171.00	416.62
1172.00	441.58
1173.00	450.94
1174.00	441.58
1175.00	451.72
1176.00	459.53
1177.00	467.33
1178.00	463.43
1179.00	440.80
1180.00	433.00
1181.00	422.86
1182.00	444.70
1183.00	451.72
1184.00	428.32
1185.00	409.59
1186.00	387.75
1187.00	400.23
1188.00	394.77
1189.00	414.27
1190.00	420.52
1191.00	457.96
1192.00	439.24
1193.00	425.98
1194.00	402.57
1195.00	402.57
1196.00	425.98
1197.00	446.26
1198.00	425.20
1199.00	443.14
1200.00	415.84
1201.00	448.60
1202.00	424.42
1203.00	434.56
1204.00	423.64
1205.00	398.67
1206.00	397.11
1207.00	406.47
1208.00	442.36
1209.00	429.10
1210.00	411.93
1211.00	411.93
1212.00	438.46
1213.00	436.90
1214.00	440.80
1215.00	431.44
1216.00	453.28
1217.00	433.00
1218.00	439.24
1219.00	429.10
1220.00	426.76
1221.00	429.88
1222.00	442.36
1223.00	450.94
1224.00	446.26
1225.00	429.10
1226.00	426.76
1227.00	418.96
1228.00	429.10
1229.00	407.25
1230.00	392.43
1231.00	396.33
1232.00	404.91
1233.00	421.30
1234.00	424.42
1235.00	430.66
1236.00	422.08
1237.00	406.47
1238.00	413.49
1239.00	430.66
1240.00	425.20
1241.00	399.45
1242.00	389.31
1243.00	422.86
1244.00	454.06
1245.00	440.02
1246.00	432.22
1247.00	411.15
1248.00	427.54
1249.00	411.93
1250.00	421.30
1251.00	416.62
1252.00	435.34
1253.00	443.92
1254.00	401.79
1255.00	386.97
1256.00	361.22
1257.00	383.85
1258.00	393.21
1259.00	429.88
1260.00	438.46
1261.00	409.59
1262.00	390.87
1263.00	379.17
1264.00	358.10
1265.00	362.00
1266.00	409.59
1267.00	450.16
1268.00	447.04
1269.00	419.74
1270.00	440.02
1271.00	435.34
1272.00	439.24
1273.00	417.40
1274.00	408.81
1275.00	411.93
1276.00	434.56
1277.00	445.48
1278.00	450.94
1279.00	420.52
1280.00	417.40
1281.00	398.67
1282.00	402.57
1283.00	396.33
1284.00	405.69
1285.00	411.15
1286.00	438.46
1287.00	412.71
1288.00	425.98
1289.00	400.23
1290.00	408.03
1291.00	376.83
1292.00	368.24
1293.00	386.97
1294.00	422.08
1295.00	421.30
1296.00	408.81
1297.00	393.99
1298.00	403.35
1299.00	403.35
1300.00	416.62
1301.00	430.66
1302.00	444.70
1303.00	440.80
1304.00	443.14
1305.00	415.84
1306.00	408.81
1307.00	402.57
1308.00	425.98
1309.00	438.46
1310.00	433.78
1311.00	454.06
1312.00	414.27
1313.00	389.31
1314.00	365.12
1315.00	382.29
1316.00	405.69
1317.00	407.25
1318.00	408.81
1319.00	419.74
1320.00	405.69
1321.00	415.06
1322.00	401.79
1323.00	408.81
1324.00	401.79
1325.00	428.32
1326.00	429.10
1327.00	454.84
1328.00	452.50
1329.00	469.67
1330.00	468.11
1331.00	462.65
1332.00	443.14
1333.00	434.56
1334.00	433.78
1335.00	433.78
1336.00	415.84
1337.00	402.57
1338.00	412.71
1339.00	418.18
1340.00	390.09
1341.00	392.43
1342.00	386.19
1343.00	388.53
1344.00	372.15
1345.00	390.09
1346.00	396.33
1347.00	404.91
1348.00	378.39
1349.00	413.49
1350.00	390.09
1351.00	418.18
1352.00	394.77
1353.00	416.62
1354.00	375.27
1355.00	380.73
1356.00	385.41
1357.00	389.31
1358.00	408.03
1359.00	433.00
1360.00	438.46
1361.00	424.42
1362.00	386.97
1363.00	403.35
1364.00	390.09
1365.00	409.59
1366.00	390.09
1367.00	402.57
1368.00	395.55
1369.00	416.62
1370.00	404.91
1371.00	414.27
1372.00	412.71
1373.00	434.56
1374.00	418.96
1375.00	440.02
1376.00	441.58
1377.00	442.36
1378.00	418.96
1379.00	395.55
1380.00	376.05
1381.00	376.83
1382.00	369.02
1383.00	379.17
1384.00	400.23
1385.00	425.98
1386.00	421.30
1387.00	420.52
1388.00	405.69
1389.00	440.80
1390.00	440.80
1391.00	465.77
1392.00	482.93
1393.00	476.69
1394.00	464.21
1395.00	443.14
1396.00	419.74
1397.00	420.52
1398.00	400.23
1399.00	442.36
1400.00	433.78
1401.00	473.57
1402.00	473.57
1403.00	468.11
1404.00	414.27
1405.00	387.75
1406.00	400.23
1407.00	429.10
1408.00	419.74
1409.00	395.55
1410.00	393.21
1411.00	397.89
1412.00	404.91
1413.00	395.55
1414.00	389.31
1415.00	370.58
1416.00	354.20
1417.00	350.30
1418.00	386.19
1419.00	425.20
1420.00	417.40
1421.00	392.43
1422.00	363.56
1423.00	371.36
1424.00	387.75
1425.00	404.91
1426.00	421.30
1427.00	433.78
1428.00	424.42
1429.00	418.18
1430.00	417.40
1431.00	392.43
1432.00	380.73
1433.00	354.20
1434.00	370.58
1435.00	404.91
1436.00	400.23
1437.00	410.37
1438.00	379.95
1439.00	374.49
1440.00	383.85
1441.00	404.13
1442.00	440.02
1443.00	436.90
1444.00	438.46
1445.00	418.96
1446.00	415.84
1447.00	406.47
1448.00	402.57
1449.00	379.95
1450.00	386.19
1451.00	396.33
1452.00	417.40
1453.00	414.27
1454.00	435.34
1455.00	423.64
1456.00	405.69
1457.00	383.85
1458.00	431.44
1459.00	447.82
1460.00	456.40
1461.00	428.32
1462.00	434.56
1463.00	430.66
1464.00	421.30
1465.00	406.47
1466.00	404.13
1467.00	422.08
1468.00	422.86
1469.00	428.32
1470.00	391.65
1471.00	385.41
1472.00	385.41
1473.00	408.03
1474.00	410.37
1475.00	405.69
1476.00	396.33
1477.00	401.79
1478.00	412.71
1479.00	418.18
1480.00	426.76
1481.00	422.08
1482.00	415.84
1483.00	413.49
1484.00	409.59
1485.00	404.13
1486.00	405.69
1487.00	394.77
1488.00	409.59
1489.00	393.21
1490.00	393.21
1491.00	389.31
1492.00	402.57
1493.00	411.93
1494.00	415.06
1495.00	390.09
1496.00	372.93
1497.00	373.71
1498.00	386.19
1499.00	388.53
1500.00	387.75
1501.00	405.69
1502.00	417.40
1503.00	399.45
1504.00	381.51
1505.00	376.05
1506.00	390.09
1507.00	411.15
1508.00	431.44
1509.00	445.48
1510.00	457.96
1511.00	433.78
1512.00	434.56
1513.00	401.01
1514.00	390.87
1515.00	367.46
1516.00	371.36
1517.00	369.80
1518.00	373.71
1519.00	354.98
1520.00	351.08
1521.00	367.46
1522.00	381.51
1523.00	400.23
1524.00	386.19
1525.00	378.39
1526.00	383.07
1527.00	381.51
1528.00	365.90
1529.00	371.36
1530.00	415.84
1531.00	458.75
1532.00	476.69
1533.00	429.88
1534.00	412.71
1535.00	397.11
1536.00	408.03
1537.00	381.51
1538.00	378.39
1539.00	375.27
1540.00	396.33
1541.00	383.85
1542.00	388.53
1543.00	409.59
1544.00	413.49
1545.00	393.21
1546.00	368.24
1547.00	371.36
1548.00	369.80
1549.00	365.90
1550.00	365.90
1551.00	366.68
1552.00	379.95
1553.00	390.09
1554.00	406.47
1555.00	402.57
1556.00	398.67
1557.00	379.95
1558.00	396.33
1559.00	390.87
1560.00	401.01
1561.00	369.02
1562.00	382.29
1563.00	380.73
1564.00	388.53
1565.00	354.20
1566.00	337.82
1567.00	342.50
1568.00	358.10
1569.00	374.49
1570.00	369.02
1571.00	356.54
1572.00	343.28
1573.00	346.40
1574.00	373.71
1575.00	401.01
1576.00	411.15
1577.00	442.36
1578.00	420.52
1579.00	442.36
1580.00	408.03
1581.00	409.59
1582.00	404.13
1583.00	404.91
1584.00	406.47
1585.00	363.56
1586.00	379.95
1587.00	379.95
1588.00	412.71
1589.00	397.11
1590.00	401.79
1591.00	379.95
1592.00	360.44
1593.00	365.90
1594.00	375.27
1595.00	387.75
1596.00	408.81
1597.00	409.59
1598.00	420.52
1599.00	404.13
1600.00	397.89
1601.00	366.68
1602.00	375.27
1603.00	392.43
1604.00	417.40
1605.00	425.98
1606.00	447.04
1607.00	464.21
1608.00	457.18
1609.00	432.22
1610.00	415.06
1611.00	394.77
1612.00	372.15
1613.00	366.68
1614.00	364.34
1615.00	380.73
1616.00	396.33
1617.00	404.13
1618.00	399.45
1619.00	376.83
1620.00	391.65
1621.00	379.95
1622.00	374.49
1623.00	347.96
1624.00	386.97
1625.00	409.59
1626.00	422.08
1627.00	380.73
1628.00	376.83
1629.00	361.22
1630.00	383.07
1631.00	358.88
1632.00	362.00
1633.00	354.20
1634.00	371.36
1635.00	397.89
1636.00	388.53
1637.00	397.89
1638.00	372.93
1639.00	400.23
1640.00	387.75
1641.00	384.63
1642.00	362.78
1643.00	365.12
1644.00	369.02
1645.00	373.71
1646.00	377.61
1647.00	365.90
1648.00	365.90
1649.00	381.51
1650.00	392.43
1651.00	388.53
1652.00	374.49
1653.00	404.91
1654.00	396.33
1655.00	407.25
1656.00	376.05
1657.00	401.79
1658.00	398.67
1659.00	398.67
1660.00	381.51
1661.00	372.15
1662.00	383.07
1663.00	397.11
1664.00	390.87
1665.00	395.55
1666.00	377.61
1667.00	371.36
1668.00	364.34
1669.00	383.07
1670.00	387.75
1671.00	391.65
1672.00	362.78
1673.00	369.80
1674.00	369.02
1675.00	383.07
1676.00	364.34
1677.00	354.98
1678.00	377.61
1679.00	411.15
1680.00	433.00
1681.00	429.88
1682.00	411.15
1683.00	404.91
1684.00	422.08
1685.00	524.28
1686.00	725.57
1687.00	1012.67
1688.00	1329.42
1689.00	1582.20
1690.00	1712.49
1691.00	1735.12
1692.00	1601.71
1693.00	1383.26
1694.00	1057.92
1695.00	763.01
1696.00	562.51
1697.00	472.79
1698.00	456.40
1699.00	447.04
1700.00	423.64
1701.00	403.35
1702.00	364.34
1703.00	401.01
1704.00	401.01
1705.00	429.88
1706.00	413.49
1707.00	412.71
1708.00	395.55
1709.00	382.29
1710.00	389.31
1711.00	409.59
1712.00	386.97
1713.00	391.65
1714.00	381.51
1715.00	404.91
1716.00	405.69
1717.00	413.49
1718.00	421.30
1719.00	413.49
1720.00	404.13
1721.00	417.40
1722.00	417.40
1723.00	393.21
1724.00	344.84
1725.00	313.63
1726.00	301.15
1727.00	318.31
1728.00	326.11
1729.00	357.32
1730.00	365.12
1731.00	384.63
1732.00	405.69
1733.00	416.62
1734.00	411.15
1735.00	395.55
1736.00	368.24
1737.00	391.65
1738.00	386.19
1739.00	397.11
1740.00	379.17
1741.00	376.83
1742.00	376.83
1743.00	368.24
1744.00	367.46
1745.00	374.49
1746.00	385.41
1747.00	374.49
1748.00	367.46
1749.00	346.40
1750.00	374.49
1751.00	363.56
1752.00	395.55
1753.00	401.01
1754.00	429.88
1755.00	408.81
1756.00	410.37
1757.00	393.99
1758.00	393.99
1759.00	378.39
1760.00	362.78
1761.00	365.12
1762.00	369.02
1763.00	387.75
1764.00	401.79
1765.00	386.97
1766.00	381.51
1767.00	369.80
1768.00	373.71
1769.00	373.71
1770.00	371.36
1771.00	377.61
1772.00	385.41
1773.00	377.61
1774.00	414.27
1775.00	421.30
1776.00	419.74
1777.00	386.97
1778.00	372.15
1779.00	366.68
1780.00	355.76
1781.00	336.26
1782.00	347.18
1783.00	368.24
1784.00	401.79
1785.00	443.14
1786.00	439.24
1787.00	441.58
1788.00	402.57
1789.00	406.47
1790.00	405.69
1791.00	396.33
1792.00	372.93
1793.00	342.50
1794.00	352.64
1795.00	359.66
1796.00	408.81
1797.00	429.10
1798.00	440.02
1799.00	411.93
1800.00	415.06
1801.00	404.13
1802.00	411.93
1803.00	417.40
1804.00	419.74
1805.00	412.71
1806.00	384.63
1807.00	397.89
1808.00	385.41
1809.00	397.11
1810.00	393.99
1811.00	401.79
1812.00	411.93
1813.00	394.77
1814.00	409.59
1815.00	396.33
1816.00	413.49
1817.00	392.43
1818.00	393.21
1819.00	384.63
1820.00	376.83
1821.00	377.61
1822.00	375.27
1823.00	389.31
1824.00	386.97
1825.00	392.43
1826.00	408.81
1827.00	434.56
1828.00	429.88
1829.00	410.37
1830.00	401.79
1831.00	399.45
1832.00	393.21
1833.00	363.56
1834.00	376.05
1835.00	406.47
1836.00	428.32
1837.00	411.93
1838.00	392.43
1839.00	410.37
1840.00	432.22
1841.00	420.52
1842.00	427.54
1843.00	429.10
1844.00	411.93
1845.00	387.75
1846.00	377.61
1847.00	405.69
1848.00	397.11
1849.00	392.43
1850.00	401.01
1851.00	394.77
1852.00	380.73
1853.00	374.49
1854.00	362.78
1855.00	380.73
1856.00	362.00
1857.00	368.24
1858.00	351.86
1859.00	358.88
1860.00	348.74
1861.00	363.56
1862.00	328.46
1863.00	354.98
1864.00	369.02
1865.00	446.26
1866.00	436.12
1867.00	420.52
1868.00	365.12
1869.00	382.29
1870.00	407.25
1871.00	419.74
1872.00	402.57
1873.00	375.27
1874.00	396.33
1875.00	408.03
1876.00	415.84
1877.00	396.33
1878.00	405.69
1879.00	392.43
1880.00	383.07
1881.00	377.61
1882.00	373.71
1883.00	401.79
1884.00	388.53
1885.00	419.74
1886.00	421.30
1887.00	420.52
1888.00	379.17
1889.00	379.17
1890.00	396.33
1891.00	412.71
1892.00	389.31
1893.00	369.80
1894.00	358.88
1895.00	380.73
1896.00	386.19
1897.00	409.59
1898.00	384.63
1899.00	372.93
1900.00	369.80
1901.00	365.90
1902.00	378.39
1903.00	393.99
1904.00	425.20
1905.00	415.84
1906.00	383.07
1907.00	352.64
1908.00	371.36
1909.00	401.01
1910.00	425.20
1911.00	427.54
1912.00	418.96
1913.00	404.91
1914.00	377.61
1915.00	385.41
1916.00	392.43
1917.00	403.35
1918.00	403.35
1919.00	397.89
1920.00	401.01
1921.00	404.13
1922.00	415.06
1923.00	429.88
1924.00	408.81
1925.00	396.33
1926.00	400.23
1927.00	397.11
1928.00	421.30
1929.00	365.90
1930.00	379.95
1931.00	356.54
1932.00	383.85
1933.00	366.68
1934.00	386.97
1935.00	415.84
1936.00	429.88
1937.00	420.52
1938.00	376.05
1939.00	379.95
1940.00	378.39
1941.00	422.08
1942.00	412.71
1943.00	400.23
1944.00	374.49
1945.00	364.34
1946.00	382.29
1947.00	393.21
1948.00	393.21
1949.00	369.02
1950.00	367.46
1951.00	383.85
1952.00	390.09
1953.00	382.29
1954.00	348.74
1955.00	374.49
1956.00	382.29
1957.00	406.47
1958.00	386.97
1959.00	377.61
1960.00	358.10
1961.00	352.64
1962.00	323.77
1963.00	339.38
1964.00	332.36
1965.00	369.02
1966.00	369.02
1967.00	380.73
1968.00	394.77
1969.00	408.81
1970.00	393.99
1971.00	392.43
1972.00	386.19
1973.00	404.91
1974.00	385.41
1975.00	364.34
1976.00	365.12
1977.00	362.78
1978.00	390.09
1979.00	393.21
1980.00	397.89
1981.00	386.97
1982.00	379.95
1983.00	386.97
1984.00	400.23
1985.00	394.77
1986.00	403.35
1987.00	421.30
1988.00	409.59
1989.00	397.11
1990.00	393.21
1991.00	401.01
1992.00	403.35
1993.00	358.10
1994.00	368.24
1995.00	362.00
1996.00	386.19
1997.00	369.02
1998.00	397.89
1999.00	377.61
2000.00	385.41
2001.00	355.76
2002.00	413.49
2003.00	425.20
2004.00	423.64
2005.00	385.41
2006.00	381.51
2007.00	379.17
2008.00	353.42
2009.00	383.07
2010.00	394.77
2011.00	419.74
2012.00	390.87
2013.00	395.55
2014.00	412.71
2015.00	404.13
2016.00	397.11
2017.00	365.12
2018.00	390.09
2019.00	373.71
2020.00	389.31
2021.00	371.36
2022.00	387.75
2023.00	383.07
2024.00	397.11
2025.00	375.27
2026.00	382.29
2027.00	371.36
2028.00	394.77
2029.00	378.39
2030.00	399.45
2031.00	397.11
2032.00	408.03
2033.00	362.00
2034.00	357.32
2035.00	360.44
2036.00	395.55
2037.00	390.09
2038.00	385.41
2039.00	357.32
2040.00	366.68
2041.00	369.80
2042.00	383.85
2043.00	401.01
2044.00	395.55
2045.00	386.19
2046.00	365.12
2047.00	374.49
>>>>>End Processed Spectral Data<<<<<
