SpectraSuite Data File
++++++++++++++++++++++++++++++++++++
Date: Thu Nov 16 14:27:21 EST 2017
User: cheriyan
Dark Spectrum Present: No
Reference Spectrum Present: No
Number of Sampled Component Spectra: 1
Spectrometers: USB2+H05261
Integration Time (usec): 100000 (USB2+H05261)
Spectra Averaged: 1 (USB2+H05261)
Boxcar Smoothing: 1 (USB2+H05261)
Correct for Electrical Dark: No (USB2+H05261)
Strobe/Lamp Enabled: No (USB2+H05261)
Correct for Detector Non-linearity: No (USB2+H05261)
Correct for Stray Light: No (USB2+H05261)
Number of Pixels in Processed Spectrum: 2048
>>>>>Begin Processed Spectral Data<<<<<
0.00	320.65
1.00	320.65
2.00	283.98
3.00	252.00
4.00	212.21
5.00	215.33
6.00	206.75
7.00	198.17
8.00	194.26
9.00	206.75
10.00	226.25
11.00	234.83
12.00	220.01
13.00	204.41
14.00	202.85
15.00	213.77
16.00	204.41
17.00	195.04
18.00	180.22
19.00	176.32
20.00	193.48
21.00	232.49
22.00	315.97
23.00	349.52
24.00	365.90
25.00	344.84
26.00	322.99
27.00	329.24
28.00	340.94
29.00	390.87
30.00	405.69
31.00	371.36
32.00	336.26
33.00	307.39
34.00	375.27
35.00	397.11
36.00	418.18
37.00	370.58
38.00	382.29
39.00	361.22
40.00	386.19
41.00	382.29
42.00	427.54
43.00	418.96
44.00	429.10
45.00	422.86
46.00	425.20
47.00	425.20
48.00	408.03
49.00	408.03
50.00	391.65
51.00	397.89
52.00	419.74
53.00	420.52
54.00	422.86
55.00	389.31
56.00	381.51
57.00	362.78
58.00	401.79
59.00	411.93
60.00	419.74
61.00	390.87
62.00	379.95
63.00	381.51
64.00	382.29
65.00	386.97
66.00	378.39
67.00	391.65
68.00	398.67
69.00	404.91
70.00	385.41
71.00	394.77
72.00	388.53
73.00	401.01
74.00	401.79
75.00	379.17
76.00	365.90
77.00	339.38
78.00	362.00
79.00	378.39
80.00	395.55
81.00	411.15
82.00	391.65
83.00	388.53
84.00	354.20
85.00	369.02
86.00	369.80
87.00	415.84
88.00	401.79
89.00	374.49
90.00	342.50
91.00	343.28
92.00	375.27
93.00	396.33
94.00	401.01
95.00	393.21
96.00	393.21
97.00	391.65
98.00	399.45
99.00	376.83
100.00	383.85
101.00	342.50
102.00	354.98
103.00	368.24
104.00	386.97
105.00	407.25
106.00	389.31
107.00	389.31
108.00	381.51
109.00	379.17
110.00	358.88
111.00	351.86
112.00	362.78
113.00	406.47
114.00	402.57
115.00	408.03
116.00	408.81
117.00	429.10
118.00	409.59
119.00	396.33
120.00	360.44
121.00	366.68
122.00	347.96
123.00	368.24
124.00	383.07
125.00	422.86
126.00	416.62
127.00	402.57
128.00	385.41
129.00	385.41
130.00	379.17
131.00	355.76
132.00	377.61
133.00	393.21
134.00	401.79
135.00	376.05
136.00	361.22
137.00	379.17
138.00	358.88
139.00	365.90
140.00	354.20
141.00	393.21
142.00	408.81
143.00	427.54
144.00	401.01
145.00	377.61
146.00	370.58
147.00	394.77
148.00	379.95
149.00	373.71
150.00	365.12
151.00	391.65
152.00	388.53
153.00	385.41
154.00	408.03
155.00	397.89
156.00	403.35
157.00	376.83
158.00	390.09
159.00	379.95
160.00	374.49
161.00	390.87
162.00	409.59
163.00	429.10
164.00	412.71
165.00	400.23
166.00	406.47
167.00	396.33
168.00	396.33
169.00	364.34
170.00	369.02
171.00	372.15
172.00	374.49
173.00	422.08
174.00	413.49
175.00	435.34
176.00	415.84
177.00	441.58
178.00	439.24
179.00	407.25
180.00	386.97
181.00	397.11
182.00	421.30
183.00	409.59
184.00	389.31
185.00	361.22
186.00	377.61
187.00	362.00
188.00	344.06
189.00	333.92
190.00	339.38
191.00	340.16
192.00	351.08
193.00	362.00
194.00	366.68
195.00	347.96
196.00	361.22
197.00	369.02
198.00	387.75
199.00	393.21
200.00	409.59
201.00	405.69
202.00	424.42
203.00	415.84
204.00	438.46
205.00	419.74
206.00	397.11
207.00	368.24
208.00	360.44
209.00	415.06
210.00	434.56
211.00	428.32
212.00	418.18
213.00	399.45
214.00	390.09
215.00	376.05
216.00	394.77
217.00	396.33
218.00	388.53
219.00	376.83
220.00	382.29
221.00	409.59
222.00	433.78
223.00	434.56
224.00	411.15
225.00	399.45
226.00	393.99
227.00	391.65
228.00	369.80
229.00	368.24
230.00	372.93
231.00	369.02
232.00	363.56
233.00	375.27
234.00	394.77
235.00	398.67
236.00	374.49
237.00	362.78
238.00	379.17
239.00	385.41
240.00	379.17
241.00	376.83
242.00	403.35
243.00	411.93
244.00	410.37
245.00	398.67
246.00	392.43
247.00	407.25
248.00	419.74
249.00	426.76
250.00	397.11
251.00	383.85
252.00	376.05
253.00	394.77
254.00	357.32
255.00	345.62
256.00	323.77
257.00	345.62
258.00	379.95
259.00	397.11
260.00	414.27
261.00	387.75
262.00	381.51
263.00	393.99
264.00	399.45
265.00	405.69
266.00	396.33
267.00	428.32
268.00	425.98
269.00	401.01
270.00	378.39
271.00	376.05
272.00	411.15
273.00	423.64
274.00	430.66
275.00	424.42
276.00	408.81
277.00	395.55
278.00	381.51
279.00	387.75
280.00	412.71
281.00	413.49
282.00	411.93
283.00	415.84
284.00	422.86
285.00	413.49
286.00	386.19
287.00	362.78
288.00	357.32
289.00	354.20
290.00	354.20
291.00	357.32
292.00	370.58
293.00	378.39
294.00	389.31
295.00	386.97
296.00	415.06
297.00	412.71
298.00	440.02
299.00	406.47
300.00	410.37
301.00	383.07
302.00	418.96
303.00	418.96
304.00	404.13
305.00	376.05
306.00	368.24
307.00	362.78
308.00	369.02
309.00	346.40
310.00	365.12
311.00	401.01
312.00	422.86
313.00	420.52
314.00	374.49
315.00	348.74
316.00	345.62
317.00	354.98
318.00	383.07
319.00	387.75
320.00	396.33
321.00	402.57
322.00	411.15
323.00	407.25
324.00	390.87
325.00	377.61
326.00	365.90
327.00	397.11
328.00	397.89
329.00	422.08
330.00	408.03
331.00	405.69
332.00	411.15
333.00	401.01
334.00	414.27
335.00	404.13
336.00	396.33
337.00	396.33
338.00	392.43
339.00	417.40
340.00	418.18
341.00	419.74
342.00	401.79
343.00	396.33
344.00	390.09
345.00	393.99
346.00	415.06
347.00	419.74
348.00	407.25
349.00	395.55
350.00	372.93
351.00	395.55
352.00	408.03
353.00	413.49
354.00	412.71
355.00	405.69
356.00	422.86
357.00	416.62
358.00	397.89
359.00	403.35
360.00	408.81
361.00	411.15
362.00	404.91
363.00	408.81
364.00	409.59
365.00	410.37
366.00	431.44
367.00	426.76
368.00	451.72
369.00	411.93
370.00	405.69
371.00	383.85
372.00	397.89
373.00	407.25
374.00	400.23
375.00	372.15
376.00	381.51
377.00	360.44
378.00	376.83
379.00	360.44
380.00	384.63
381.00	393.99
382.00	385.41
383.00	385.41
384.00	394.77
385.00	425.98
386.00	426.76
387.00	411.93
388.00	404.13
389.00	386.97
390.00	418.18
391.00	407.25
392.00	407.25
393.00	376.83
394.00	401.01
395.00	391.65
396.00	395.55
397.00	401.79
398.00	411.15
399.00	421.30
400.00	392.43
401.00	390.09
402.00	397.11
403.00	397.11
404.00	422.08
405.00	399.45
406.00	395.55
407.00	365.12
408.00	354.20
409.00	355.76
410.00	369.02
411.00	381.51
412.00	404.91
413.00	401.79
414.00	388.53
415.00	371.36
416.00	383.07
417.00	379.95
418.00	371.36
419.00	369.80
420.00	406.47
421.00	412.71
422.00	410.37
423.00	393.21
424.00	386.19
425.00	401.01
426.00	404.13
427.00	436.12
428.00	409.59
429.00	413.49
430.00	390.09
431.00	388.53
432.00	386.19
433.00	396.33
434.00	429.10
435.00	429.88
436.00	422.08
437.00	386.19
438.00	389.31
439.00	401.79
440.00	416.62
441.00	410.37
442.00	391.65
443.00	398.67
444.00	365.12
445.00	352.64
446.00	347.18
447.00	378.39
448.00	394.77
449.00	396.33
450.00	395.55
451.00	387.75
452.00	401.79
453.00	397.89
454.00	397.89
455.00	372.15
456.00	392.43
457.00	393.99
458.00	415.84
459.00	404.91
460.00	404.13
461.00	386.97
462.00	394.77
463.00	382.29
464.00	373.71
465.00	385.41
466.00	408.81
467.00	444.70
468.00	412.71
469.00	429.88
470.00	390.87
471.00	405.69
472.00	375.27
473.00	380.73
474.00	369.02
475.00	362.00
476.00	332.36
477.00	344.84
478.00	365.90
479.00	418.96
480.00	414.27
481.00	415.84
482.00	400.23
483.00	397.11
484.00	378.39
485.00	381.51
486.00	391.65
487.00	392.43
488.00	382.29
489.00	392.43
490.00	395.55
491.00	388.53
492.00	363.56
493.00	390.09
494.00	425.20
495.00	443.14
496.00	395.55
497.00	381.51
498.00	376.05
499.00	433.00
500.00	443.92
501.00	436.90
502.00	398.67
503.00	386.19
504.00	394.77
505.00	386.19
506.00	395.55
507.00	390.09
508.00	425.20
509.00	443.92
510.00	457.18
511.00	464.99
512.00	443.92
513.00	433.00
514.00	411.15
515.00	415.06
516.00	397.89
517.00	418.96
518.00	408.81
519.00	419.74
520.00	394.77
521.00	398.67
522.00	386.97
523.00	386.97
524.00	364.34
525.00	380.73
526.00	394.77
527.00	421.30
528.00	409.59
529.00	420.52
530.00	422.08
531.00	423.64
532.00	421.30
533.00	405.69
534.00	432.22
535.00	419.74
536.00	443.92
537.00	430.66
538.00	446.26
539.00	439.24
540.00	433.78
541.00	411.93
542.00	403.35
543.00	433.78
544.00	434.56
545.00	426.76
546.00	386.97
547.00	376.05
548.00	373.71
549.00	373.71
550.00	395.55
551.00	401.01
552.00	423.64
553.00	415.06
554.00	418.18
555.00	421.30
556.00	427.54
557.00	412.71
558.00	390.09
559.00	363.56
560.00	372.93
561.00	368.24
562.00	390.09
563.00	414.27
564.00	407.25
565.00	414.27
566.00	391.65
567.00	409.59
568.00	386.97
569.00	379.17
570.00	385.41
571.00	401.01
572.00	426.76
573.00	439.24
574.00	436.90
575.00	418.96
576.00	402.57
577.00	412.71
578.00	427.54
579.00	422.86
580.00	396.33
581.00	384.63
582.00	370.58
583.00	369.02
584.00	367.46
585.00	405.69
586.00	408.81
587.00	398.67
588.00	383.07
589.00	411.93
590.00	421.30
591.00	408.81
592.00	389.31
593.00	386.19
594.00	397.11
595.00	396.33
596.00	406.47
597.00	397.11
598.00	398.67
599.00	384.63
600.00	397.11
601.00	384.63
602.00	399.45
603.00	376.05
604.00	375.27
605.00	376.05
606.00	404.91
607.00	429.88
608.00	434.56
609.00	416.62
610.00	404.13
611.00	383.85
612.00	386.19
613.00	388.53
614.00	398.67
615.00	408.03
616.00	426.76
617.00	440.80
618.00	423.64
619.00	404.13
620.00	383.85
621.00	394.77
622.00	385.41
623.00	393.99
624.00	402.57
625.00	399.45
626.00	377.61
627.00	368.24
628.00	365.90
629.00	389.31
630.00	393.21
631.00	409.59
632.00	428.32
633.00	418.18
634.00	431.44
635.00	486.83
636.00	574.99
637.00	644.43
638.00	651.45
639.00	637.41
640.00	599.18
641.00	553.15
642.00	506.34
643.00	468.89
644.00	429.10
645.00	411.15
646.00	428.32
647.00	438.46
648.00	424.42
649.00	373.71
650.00	372.15
651.00	397.11
652.00	441.58
653.00	438.46
654.00	479.81
655.00	469.67
656.00	468.11
657.00	402.57
658.00	385.41
659.00	411.15
660.00	418.18
661.00	414.27
662.00	403.35
663.00	401.79
664.00	414.27
665.00	391.65
666.00	371.36
667.00	373.71
668.00	394.77
669.00	422.86
670.00	426.76
671.00	417.40
672.00	405.69
673.00	405.69
674.00	412.71
675.00	424.42
676.00	441.58
677.00	432.22
678.00	437.68
679.00	441.58
680.00	476.69
681.00	491.51
682.00	472.01
683.00	435.34
684.00	407.25
685.00	386.19
686.00	397.11
687.00	379.95
688.00	382.29
689.00	377.61
690.00	392.43
691.00	408.03
692.00	390.09
693.00	386.97
694.00	372.93
695.00	376.05
696.00	391.65
697.00	393.21
698.00	398.67
699.00	409.59
700.00	414.27
701.00	431.44
702.00	434.56
703.00	440.02
704.00	406.47
705.00	390.87
706.00	409.59
707.00	425.98
708.00	425.98
709.00	400.23
710.00	397.11
711.00	371.36
712.00	386.19
713.00	412.71
714.00	436.12
715.00	427.54
716.00	426.76
717.00	435.34
718.00	464.99
719.00	457.96
720.00	450.94
721.00	444.70
722.00	429.88
723.00	447.82
724.00	433.00
725.00	429.88
726.00	389.31
727.00	379.17
728.00	368.24
729.00	412.71
730.00	427.54
731.00	439.24
732.00	419.74
733.00	405.69
734.00	415.84
735.00	413.49
736.00	425.20
737.00	400.23
738.00	382.29
739.00	357.32
740.00	375.27
741.00	391.65
742.00	395.55
743.00	411.15
744.00	418.18
745.00	411.93
746.00	429.10
747.00	420.52
748.00	438.46
749.00	429.10
750.00	439.24
751.00	442.36
752.00	427.54
753.00	410.37
754.00	410.37
755.00	422.86
756.00	428.32
757.00	446.26
758.00	440.02
759.00	447.04
760.00	415.84
761.00	369.80
762.00	382.29
763.00	408.03
764.00	435.34
765.00	440.02
766.00	418.96
767.00	414.27
768.00	401.01
769.00	394.77
770.00	409.59
771.00	399.45
772.00	430.66
773.00	427.54
774.00	439.24
775.00	414.27
776.00	419.74
777.00	398.67
778.00	415.84
779.00	408.81
780.00	422.86
781.00	413.49
782.00	395.55
783.00	469.67
784.00	464.99
785.00	455.62
786.00	350.30
787.00	362.78
788.00	383.85
789.00	408.03
790.00	388.53
791.00	383.07
792.00	388.53
793.00	403.35
794.00	404.91
795.00	408.81
796.00	386.19
797.00	418.96
798.00	399.45
799.00	413.49
800.00	374.49
801.00	361.22
802.00	354.98
803.00	370.58
804.00	388.53
805.00	401.01
806.00	391.65
807.00	385.41
808.00	384.63
809.00	391.65
810.00	404.91
811.00	415.06
812.00	429.88
813.00	408.81
814.00	417.40
815.00	416.62
816.00	447.04
817.00	436.12
818.00	420.52
819.00	412.71
820.00	396.33
821.00	422.86
822.00	432.22
823.00	445.48
824.00	417.40
825.00	408.81
826.00	422.86
827.00	435.34
828.00	447.82
829.00	431.44
830.00	428.32
831.00	424.42
832.00	418.96
833.00	438.46
834.00	418.96
835.00	425.98
836.00	405.69
837.00	417.40
838.00	396.33
839.00	392.43
840.00	388.53
841.00	401.79
842.00	400.23
843.00	383.85
844.00	398.67
845.00	409.59
846.00	437.68
847.00	408.03
848.00	396.33
849.00	390.09
850.00	410.37
851.00	426.76
852.00	408.03
853.00	402.57
854.00	379.95
855.00	383.85
856.00	369.80
857.00	362.00
858.00	379.17
859.00	389.31
860.00	377.61
861.00	363.56
862.00	381.51
863.00	386.19
864.00	390.87
865.00	379.95
866.00	392.43
867.00	390.09
868.00	390.87
869.00	397.11
870.00	404.13
871.00	428.32
872.00	418.18
873.00	410.37
874.00	394.77
875.00	404.13
876.00	396.33
877.00	379.95
878.00	386.97
879.00	408.81
880.00	418.96
881.00	428.32
882.00	430.66
883.00	427.54
884.00	436.90
885.00	433.78
886.00	447.82
887.00	420.52
888.00	415.84
889.00	403.35
890.00	408.03
891.00	384.63
892.00	392.43
893.00	386.97
894.00	413.49
895.00	404.91
896.00	429.10
897.00	403.35
898.00	401.01
899.00	386.19
900.00	426.76
901.00	415.06
902.00	405.69
903.00	387.75
904.00	386.19
905.00	404.13
906.00	402.57
907.00	423.64
908.00	433.00
909.00	764.57
910.00	755.99
911.00	703.72
912.00	354.98
913.00	365.90
914.00	397.11
915.00	400.23
916.00	366.68
917.00	356.54
918.00	347.96
919.00	351.86
920.00	359.66
921.00	393.99
922.00	408.81
923.00	402.57
924.00	416.62
925.00	433.00
926.00	450.94
927.00	425.98
928.00	383.85
929.00	375.27
930.00	368.24
931.00	383.85
932.00	368.24
933.00	354.20
934.00	384.63
935.00	401.79
936.00	437.68
937.00	418.18
938.00	419.74
939.00	404.91
940.00	426.76
941.00	425.20
942.00	437.68
943.00	426.76
944.00	415.84
945.00	428.32
946.00	399.45
947.00	422.08
948.00	398.67
949.00	437.68
950.00	415.06
951.00	390.09
952.00	385.41
953.00	394.77
954.00	415.06
955.00	407.25
956.00	404.13
957.00	418.96
958.00	431.44
959.00	444.70
960.00	454.84
961.00	446.26
962.00	451.72
963.00	435.34
964.00	443.92
965.00	447.82
966.00	464.21
967.00	451.72
968.00	421.30
969.00	410.37
970.00	399.45
971.00	403.35
972.00	380.73
973.00	388.53
974.00	390.09
975.00	393.99
976.00	401.79
977.00	389.31
978.00	385.41
979.00	380.73
980.00	407.25
981.00	401.79
982.00	401.79
983.00	387.75
984.00	408.81
985.00	411.15
986.00	409.59
987.00	396.33
988.00	380.73
989.00	379.95
990.00	362.78
991.00	359.66
992.00	369.80
993.00	374.49
994.00	383.85
995.00	400.23
996.00	451.72
997.00	451.72
998.00	431.44
999.00	426.76
1000.00	426.76
1001.00	425.98
1002.00	406.47
1003.00	410.37
1004.00	426.76
1005.00	418.96
1006.00	416.62
1007.00	414.27
1008.00	407.25
1009.00	445.48
1010.00	458.74
1011.00	469.67
1012.00	446.26
1013.00	397.89
1014.00	372.93
1015.00	335.48
1016.00	365.90
1017.00	365.90
1018.00	379.95
1019.00	356.54
1020.00	370.58
1021.00	395.55
1022.00	415.06
1023.00	429.88
1024.00	412.71
1025.00	420.52
1026.00	416.62
1027.00	417.40
1028.00	407.25
1029.00	379.17
1030.00	372.93
1031.00	372.15
1032.00	402.57
1033.00	414.27
1034.00	417.40
1035.00	411.93
1036.00	413.49
1037.00	418.96
1038.00	418.18
1039.00	410.37
1040.00	404.13
1041.00	425.98
1042.00	423.64
1043.00	411.15
1044.00	378.39
1045.00	416.62
1046.00	451.72
1047.00	475.13
1048.00	437.68
1049.00	433.00
1050.00	410.37
1051.00	402.57
1052.00	390.09
1053.00	396.33
1054.00	396.33
1055.00	403.35
1056.00	405.69
1057.00	408.81
1058.00	385.41
1059.00	396.33
1060.00	416.62
1061.00	416.62
1062.00	400.23
1063.00	394.77
1064.00	410.37
1065.00	436.12
1066.00	440.80
1067.00	429.88
1068.00	406.47
1069.00	383.07
1070.00	364.34
1071.00	354.98
1072.00	373.71
1073.00	409.59
1074.00	431.44
1075.00	415.84
1076.00	417.40
1077.00	426.76
1078.00	440.80
1079.00	429.10
1080.00	394.77
1081.00	397.89
1082.00	386.97
1083.00	372.15
1084.00	366.68
1085.00	379.17
1086.00	435.34
1087.00	473.57
1088.00	474.35
1089.00	460.31
1090.00	433.78
1091.00	427.54
1092.00	434.56
1093.00	436.90
1094.00	448.60
1095.00	435.34
1096.00	410.37
1097.00	379.17
1098.00	380.73
1099.00	404.13
1100.00	401.79
1101.00	401.79
1102.00	386.19
1103.00	394.77
1104.00	376.83
1105.00	404.13
1106.00	415.84
1107.00	411.15
1108.00	383.85
1109.00	384.63
1110.00	398.67
1111.00	401.79
1112.00	399.45
1113.00	402.57
1114.00	390.87
1115.00	398.67
1116.00	414.27
1117.00	404.91
1118.00	403.35
1119.00	396.33
1120.00	434.56
1121.00	426.76
1122.00	436.90
1123.00	437.68
1124.00	458.75
1125.00	438.46
1126.00	402.57
1127.00	390.09
1128.00	382.29
1129.00	373.71
1130.00	366.68
1131.00	367.46
1132.00	380.73
1133.00	415.06
1134.00	418.18
1135.00	413.49
1136.00	405.69
1137.00	432.22
1138.00	449.38
1139.00	417.40
1140.00	397.89
1141.00	397.89
1142.00	411.15
1143.00	412.71
1144.00	409.59
1145.00	403.35
1146.00	425.20
1147.00	440.02
1148.00	458.75
1149.00	453.28
1150.00	457.96
1151.00	450.94
1152.00	438.46
1153.00	403.35
1154.00	390.09
1155.00	359.66
1156.00	380.73
1157.00	372.93
1158.00	380.73
1159.00	362.00
1160.00	353.42
1161.00	354.20
1162.00	378.39
1163.00	405.69
1164.00	410.37
1165.00	396.33
1166.00	380.73
1167.00	391.65
1168.00	373.71
1169.00	376.05
1170.00	378.39
1171.00	401.79
1172.00	437.68
1173.00	445.48
1174.00	439.24
1175.00	432.22
1176.00	450.16
1177.00	441.58
1178.00	433.00
1179.00	399.45
1180.00	415.84
1181.00	422.08
1182.00	429.10
1183.00	444.70
1184.00	420.52
1185.00	421.30
1186.00	400.23
1187.00	389.31
1188.00	376.05
1189.00	385.41
1190.00	382.29
1191.00	395.55
1192.00	390.09
1193.00	391.65
1194.00	396.33
1195.00	397.89
1196.00	427.54
1197.00	420.52
1198.00	411.93
1199.00	424.42
1200.00	429.10
1201.00	456.40
1202.00	438.46
1203.00	441.58
1204.00	423.64
1205.00	432.22
1206.00	413.49
1207.00	417.40
1208.00	418.96
1209.00	427.54
1210.00	436.90
1211.00	440.02
1212.00	454.06
1213.00	427.54
1214.00	401.79
1215.00	400.23
1216.00	422.08
1217.00	416.62
1218.00	429.10
1219.00	409.59
1220.00	426.76
1221.00	379.17
1222.00	362.00
1223.00	347.96
1224.00	392.43
1225.00	415.06
1226.00	432.22
1227.00	401.01
1228.00	410.37
1229.00	401.01
1230.00	414.27
1231.00	419.74
1232.00	407.25
1233.00	408.81
1234.00	401.79
1235.00	437.68
1236.00	426.76
1237.00	401.79
1238.00	365.90
1239.00	392.43
1240.00	426.76
1241.00	437.68
1242.00	433.78
1243.00	426.76
1244.00	426.76
1245.00	396.33
1246.00	379.95
1247.00	367.46
1248.00	376.83
1249.00	387.75
1250.00	421.30
1251.00	432.22
1252.00	411.15
1253.00	379.17
1254.00	397.89
1255.00	418.96
1256.00	434.56
1257.00	397.11
1258.00	386.19
1259.00	372.15
1260.00	385.41
1261.00	405.69
1262.00	440.02
1263.00	443.14
1264.00	442.36
1265.00	415.84
1266.00	435.34
1267.00	448.60
1268.00	454.84
1269.00	411.93
1270.00	385.41
1271.00	397.11
1272.00	404.91
1273.00	408.81
1274.00	389.31
1275.00	400.23
1276.00	413.49
1277.00	444.70
1278.00	435.34
1279.00	415.84
1280.00	383.07
1281.00	397.11
1282.00	379.17
1283.00	392.43
1284.00	399.45
1285.00	404.91
1286.00	400.23
1287.00	372.93
1288.00	398.67
1289.00	389.31
1290.00	400.23
1291.00	380.73
1292.00	393.21
1293.00	383.07
1294.00	418.18
1295.00	401.79
1296.00	441.58
1297.00	436.12
1298.00	432.22
1299.00	422.86
1300.00	406.47
1301.00	425.20
1302.00	443.14
1303.00	438.46
1304.00	440.02
1305.00	426.76
1306.00	433.78
1307.00	429.88
1308.00	408.81
1309.00	394.77
1310.00	407.25
1311.00	401.79
1312.00	423.64
1313.00	417.40
1314.00	433.78
1315.00	404.91
1316.00	385.41
1317.00	387.75
1318.00	387.75
1319.00	386.97
1320.00	382.29
1321.00	396.33
1322.00	423.64
1323.00	441.58
1324.00	408.03
1325.00	425.20
1326.00	403.35
1327.00	451.72
1328.00	440.80
1329.00	433.78
1330.00	436.90
1331.00	436.90
1332.00	467.33
1333.00	447.82
1334.00	422.08
1335.00	395.55
1336.00	390.87
1337.00	424.42
1338.00	451.72
1339.00	467.33
1340.00	433.78
1341.00	393.21
1342.00	354.98
1343.00	350.30
1344.00	347.18
1345.00	386.19
1346.00	415.06
1347.00	447.82
1348.00	419.74
1349.00	405.69
1350.00	375.27
1351.00	400.23
1352.00	392.43
1353.00	418.18
1354.00	403.35
1355.00	408.81
1356.00	404.91
1357.00	418.18
1358.00	429.10
1359.00	441.58
1360.00	430.66
1361.00	409.59
1362.00	404.91
1363.00	409.59
1364.00	424.42
1365.00	404.13
1366.00	393.21
1367.00	405.69
1368.00	418.18
1369.00	432.22
1370.00	418.96
1371.00	404.13
1372.00	406.47
1373.00	398.67
1374.00	421.30
1375.00	422.86
1376.00	420.52
1377.00	422.08
1378.00	411.15
1379.00	412.71
1380.00	404.91
1381.00	410.37
1382.00	408.81
1383.00	388.53
1384.00	393.99
1385.00	393.21
1386.00	404.13
1387.00	376.05
1388.00	361.22
1389.00	403.35
1390.00	443.92
1391.00	484.49
1392.00	452.50
1393.00	448.60
1394.00	434.56
1395.00	427.54
1396.00	422.86
1397.00	405.69
1398.00	395.55
1399.00	408.81
1400.00	418.96
1401.00	436.90
1402.00	407.25
1403.00	425.98
1404.00	438.46
1405.00	440.02
1406.00	415.84
1407.00	379.17
1408.00	391.65
1409.00	412.71
1410.00	446.26
1411.00	446.26
1412.00	440.80
1413.00	418.96
1414.00	430.66
1415.00	421.30
1416.00	422.08
1417.00	383.85
1418.00	389.31
1419.00	372.15
1420.00	396.33
1421.00	395.55
1422.00	423.64
1423.00	416.62
1424.00	413.49
1425.00	384.63
1426.00	411.93
1427.00	415.84
1428.00	432.22
1429.00	409.59
1430.00	391.65
1431.00	400.23
1432.00	370.58
1433.00	382.29
1434.00	384.63
1435.00	386.19
1436.00	393.21
1437.00	391.65
1438.00	411.93
1439.00	384.63
1440.00	372.93
1441.00	393.99
1442.00	421.30
1443.00	440.80
1444.00	406.47
1445.00	417.40
1446.00	401.01
1447.00	418.96
1448.00	386.19
1449.00	397.89
1450.00	408.81
1451.00	422.86
1452.00	383.07
1453.00	362.78
1454.00	361.22
1455.00	393.99
1456.00	396.33
1457.00	374.49
1458.00	445.48
1459.00	443.92
1460.00	475.13
1461.00	436.12
1462.00	449.38
1463.00	472.01
1464.00	456.40
1465.00	491.51
1466.00	465.77
1467.00	450.16
1468.00	411.93
1469.00	411.15
1470.00	405.69
1471.00	397.89
1472.00	384.63
1473.00	384.63
1474.00	372.93
1475.00	383.07
1476.00	400.23
1477.00	426.76
1478.00	427.54
1479.00	420.52
1480.00	417.40
1481.00	393.21
1482.00	391.65
1483.00	381.51
1484.00	370.58
1485.00	338.60
1486.00	343.28
1487.00	361.22
1488.00	384.63
1489.00	376.05
1490.00	369.02
1491.00	355.76
1492.00	365.90
1493.00	383.85
1494.00	388.53
1495.00	385.41
1496.00	393.99
1497.00	411.15
1498.00	397.89
1499.00	385.41
1500.00	372.15
1501.00	390.09
1502.00	381.51
1503.00	383.07
1504.00	393.99
1505.00	406.47
1506.00	412.71
1507.00	399.45
1508.00	398.67
1509.00	404.91
1510.00	388.53
1511.00	359.66
1512.00	352.64
1513.00	400.23
1514.00	428.32
1515.00	413.49
1516.00	388.53
1517.00	418.18
1518.00	429.88
1519.00	405.69
1520.00	379.17
1521.00	388.53
1522.00	418.96
1523.00	425.20
1524.00	436.90
1525.00	418.18
1526.00	418.96
1527.00	422.08
1528.00	444.70
1529.00	440.02
1530.00	429.88
1531.00	413.49
1532.00	431.44
1533.00	424.42
1534.00	442.36
1535.00	454.84
1536.00	440.80
1537.00	436.90
1538.00	399.45
1539.00	417.40
1540.00	372.15
1541.00	363.56
1542.00	379.95
1543.00	373.71
1544.00	379.95
1545.00	347.96
1546.00	383.07
1547.00	379.95
1548.00	394.77
1549.00	383.07
1550.00	388.53
1551.00	396.33
1552.00	433.78
1553.00	451.72
1554.00	448.60
1555.00	434.56
1556.00	422.86
1557.00	402.57
1558.00	387.75
1559.00	415.06
1560.00	443.14
1561.00	440.02
1562.00	415.84
1563.00	401.01
1564.00	404.13
1565.00	422.86
1566.00	416.62
1567.00	425.20
1568.00	399.45
1569.00	381.51
1570.00	387.75
1571.00	369.02
1572.00	380.73
1573.00	363.56
1574.00	408.03
1575.00	438.46
1576.00	433.78
1577.00	445.48
1578.00	418.96
1579.00	421.30
1580.00	379.17
1581.00	376.05
1582.00	397.89
1583.00	407.25
1584.00	411.93
1585.00	409.59
1586.00	392.43
1587.00	395.55
1588.00	386.97
1589.00	393.21
1590.00	395.55
1591.00	388.53
1592.00	383.07
1593.00	386.97
1594.00	410.37
1595.00	447.82
1596.00	430.66
1597.00	438.46
1598.00	401.79
1599.00	413.49
1600.00	372.93
1601.00	373.71
1602.00	362.00
1603.00	384.63
1604.00	395.55
1605.00	416.62
1606.00	420.52
1607.00	426.76
1608.00	419.74
1609.00	381.51
1610.00	383.85
1611.00	392.43
1612.00	399.45
1613.00	393.21
1614.00	374.49
1615.00	373.71
1616.00	360.44
1617.00	341.72
1618.00	369.80
1619.00	372.93
1620.00	401.01
1621.00	365.90
1622.00	368.24
1623.00	355.76
1624.00	393.21
1625.00	401.01
1626.00	401.79
1627.00	407.25
1628.00	402.57
1629.00	404.91
1630.00	397.89
1631.00	413.49
1632.00	393.99
1633.00	393.21
1634.00	383.85
1635.00	418.18
1636.00	404.91
1637.00	394.77
1638.00	390.09
1639.00	402.57
1640.00	406.47
1641.00	395.55
1642.00	386.97
1643.00	390.09
1644.00	397.89
1645.00	393.21
1646.00	403.35
1647.00	408.81
1648.00	401.79
1649.00	376.83
1650.00	372.93
1651.00	362.00
1652.00	381.51
1653.00	374.49
1654.00	392.43
1655.00	383.07
1656.00	390.09
1657.00	415.06
1658.00	429.88
1659.00	404.91
1660.00	386.97
1661.00	373.71
1662.00	393.99
1663.00	385.41
1664.00	402.57
1665.00	404.13
1666.00	433.00
1667.00	428.32
1668.00	444.70
1669.00	436.12
1670.00	420.52
1671.00	396.33
1672.00	417.40
1673.00	437.68
1674.00	416.62
1675.00	390.09
1676.00	364.34
1677.00	390.87
1678.00	376.83
1679.00	397.89
1680.00	395.55
1681.00	432.22
1682.00	426.76
1683.00	429.10
1684.00	421.30
1685.00	504.78
1686.00	656.13
1687.00	905.01
1688.00	1206.16
1689.00	1483.90
1690.00	1642.28
1691.00	1630.57
1692.00	1471.42
1693.00	1215.52
1694.00	915.93
1695.00	699.82
1696.00	549.25
1697.00	519.60
1698.00	466.55
1699.00	467.33
1700.00	418.18
1701.00	413.49
1702.00	391.65
1703.00	419.74
1704.00	427.54
1705.00	451.72
1706.00	424.42
1707.00	400.23
1708.00	365.12
1709.00	379.95
1710.00	403.35
1711.00	404.91
1712.00	388.53
1713.00	373.71
1714.00	390.87
1715.00	397.11
1716.00	386.97
1717.00	386.19
1718.00	389.31
1719.00	422.08
1720.00	402.57
1721.00	390.09
1722.00	398.67
1723.00	390.87
1724.00	410.37
1725.00	384.63
1726.00	399.45
1727.00	377.61
1728.00	395.55
1729.00	403.35
1730.00	411.93
1731.00	401.79
1732.00	395.55
1733.00	409.59
1734.00	401.79
1735.00	407.25
1736.00	386.19
1737.00	407.25
1738.00	389.31
1739.00	411.93
1740.00	408.81
1741.00	423.64
1742.00	401.01
1743.00	383.85
1744.00	348.74
1745.00	347.96
1746.00	347.96
1747.00	390.09
1748.00	403.35
1749.00	412.71
1750.00	401.79
1751.00	387.75
1752.00	375.27
1753.00	386.19
1754.00	397.89
1755.00	402.57
1756.00	422.08
1757.00	433.00
1758.00	436.12
1759.00	386.19
1760.00	383.85
1761.00	354.98
1762.00	390.09
1763.00	407.25
1764.00	433.78
1765.00	413.49
1766.00	399.45
1767.00	408.81
1768.00	418.18
1769.00	401.79
1770.00	411.93
1771.00	418.18
1772.00	418.18
1773.00	390.87
1774.00	403.35
1775.00	424.42
1776.00	449.38
1777.00	440.02
1778.00	409.59
1779.00	407.25
1780.00	413.49
1781.00	421.30
1782.00	411.15
1783.00	384.63
1784.00	363.56
1785.00	372.15
1786.00	393.99
1787.00	422.08
1788.00	423.64
1789.00	394.77
1790.00	391.65
1791.00	377.61
1792.00	404.13
1793.00	386.97
1794.00	392.43
1795.00	383.07
1796.00	404.91
1797.00	414.27
1798.00	402.57
1799.00	386.97
1800.00	363.56
1801.00	369.02
1802.00	369.02
1803.00	379.95
1804.00	371.36
1805.00	374.49
1806.00	370.58
1807.00	378.39
1808.00	397.89
1809.00	397.89
1810.00	403.35
1811.00	389.31
1812.00	396.33
1813.00	411.15
1814.00	394.77
1815.00	390.87
1816.00	388.53
1817.00	409.59
1818.00	428.32
1819.00	410.37
1820.00	389.31
1821.00	382.29
1822.00	393.99
1823.00	423.64
1824.00	411.15
1825.00	428.32
1826.00	424.42
1827.00	420.52
1828.00	418.18
1829.00	422.08
1830.00	409.59
1831.00	372.15
1832.00	351.08
1833.00	358.88
1834.00	365.90
1835.00	387.75
1836.00	411.93
1837.00	428.32
1838.00	429.88
1839.00	409.59
1840.00	379.95
1841.00	365.12
1842.00	383.07
1843.00	411.93
1844.00	427.54
1845.00	432.22
1846.00	425.20
1847.00	417.40
1848.00	400.23
1849.00	374.49
1850.00	372.93
1851.00	381.51
1852.00	385.41
1853.00	365.90
1854.00	357.32
1855.00	372.15
1856.00	385.41
1857.00	397.89
1858.00	394.77
1859.00	383.07
1860.00	356.54
1861.00	369.02
1862.00	369.02
1863.00	383.07
1864.00	385.41
1865.00	409.59
1866.00	394.77
1867.00	385.41
1868.00	350.30
1869.00	383.85
1870.00	371.36
1871.00	398.67
1872.00	365.90
1873.00	384.63
1874.00	379.17
1875.00	398.67
1876.00	393.99
1877.00	403.35
1878.00	394.77
1879.00	379.17
1880.00	364.34
1881.00	346.40
1882.00	364.34
1883.00	381.51
1884.00	390.09
1885.00	400.23
1886.00	368.24
1887.00	361.22
1888.00	342.50
1889.00	376.83
1890.00	424.42
1891.00	451.72
1892.00	444.70
1893.00	418.96
1894.00	388.53
1895.00	383.07
1896.00	376.83
1897.00	374.49
1898.00	361.22
1899.00	381.51
1900.00	408.03
1901.00	422.08
1902.00	411.93
1903.00	379.17
1904.00	382.29
1905.00	386.97
1906.00	400.23
1907.00	383.85
1908.00	386.19
1909.00	404.13
1910.00	415.06
1911.00	424.42
1912.00	425.20
1913.00	418.96
1914.00	396.33
1915.00	367.46
1916.00	373.71
1917.00	383.07
1918.00	401.01
1919.00	392.43
1920.00	400.23
1921.00	403.35
1922.00	395.55
1923.00	385.41
1924.00	376.83
1925.00	394.77
1926.00	385.41
1927.00	394.77
1928.00	386.97
1929.00	410.37
1930.00	400.23
1931.00	392.43
1932.00	387.75
1933.00	385.41
1934.00	391.65
1935.00	377.61
1936.00	397.11
1937.00	425.98
1938.00	437.68
1939.00	418.18
1940.00	422.08
1941.00	400.23
1942.00	408.03
1943.00	378.39
1944.00	383.07
1945.00	383.85
1946.00	408.03
1947.00	418.18
1948.00	412.71
1949.00	386.19
1950.00	374.49
1951.00	369.80
1952.00	367.46
1953.00	368.24
1954.00	362.00
1955.00	337.82
1956.00	335.48
1957.00	337.04
1958.00	366.68
1959.00	383.85
1960.00	401.01
1961.00	392.43
1962.00	372.93
1963.00	375.27
1964.00	399.45
1965.00	405.69
1966.00	404.91
1967.00	367.46
1968.00	370.58
1969.00	358.88
1970.00	379.17
1971.00	376.05
1972.00	370.58
1973.00	418.18
1974.00	423.64
1975.00	444.70
1976.00	390.09
1977.00	392.43
1978.00	397.89
1979.00	430.66
1980.00	421.30
1981.00	404.91
1982.00	377.61
1983.00	372.15
1984.00	371.36
1985.00	383.85
1986.00	411.93
1987.00	418.96
1988.00	413.49
1989.00	397.11
1990.00	392.43
1991.00	381.51
1992.00	382.29
1993.00	377.61
1994.00	383.85
1995.00	367.46
1996.00	353.42
1997.00	357.32
1998.00	381.51
1999.00	390.09
2000.00	376.83
2001.00	376.83
2002.00	425.20
2003.00	460.31
2004.00	447.04
2005.00	402.57
2006.00	369.02
2007.00	374.49
2008.00	372.93
2009.00	370.58
2010.00	363.56
2011.00	369.80
2012.00	395.55
2013.00	411.15
2014.00	416.62
2015.00	398.67
2016.00	407.25
2017.00	400.23
2018.00	395.55
2019.00	362.78
2020.00	376.05
2021.00	372.15
2022.00	383.07
2023.00	368.24
2024.00	392.43
2025.00	381.51
2026.00	383.85
2027.00	365.90
2028.00	365.90
2029.00	355.76
2030.00	372.15
2031.00	381.51
2032.00	407.25
2033.00	425.20
2034.00	421.30
2035.00	391.65
2036.00	374.49
2037.00	404.91
2038.00	435.34
2039.00	430.66
2040.00	394.77
2041.00	395.55
2042.00	394.77
2043.00	425.20
2044.00	408.03
2045.00	404.13
2046.00	382.29
2047.00	376.83
>>>>>End Processed Spectral Data<<<<<
