SpectraSuite Data File
++++++++++++++++++++++++++++++++++++
Date: Thu Nov 16 14:27:20 EST 2017
User: cheriyan
Dark Spectrum Present: No
Reference Spectrum Present: No
Number of Sampled Component Spectra: 1
Spectrometers: USB2+H05261
Integration Time (usec): 100000 (USB2+H05261)
Spectra Averaged: 1 (USB2+H05261)
Boxcar Smoothing: 1 (USB2+H05261)
Correct for Electrical Dark: No (USB2+H05261)
Strobe/Lamp Enabled: No (USB2+H05261)
Correct for Detector Non-linearity: No (USB2+H05261)
Correct for Stray Light: No (USB2+H05261)
Number of Pixels in Processed Spectrum: 2048
>>>>>Begin Processed Spectral Data<<<<<
0.00	376.83
1.00	376.83
2.00	337.82
3.00	306.61
4.00	277.74
5.00	267.60
6.00	212.99
7.00	211.43
8.00	209.09
9.00	219.23
10.00	213.77
11.00	201.29
12.00	235.61
13.00	209.87
14.00	237.95
15.00	212.21
16.00	206.75
17.00	200.51
18.00	216.89
19.00	241.86
20.00	262.92
21.00	278.52
22.00	308.95
23.00	326.89
24.00	319.87
25.00	322.21
26.00	316.75
27.00	353.42
28.00	362.78
29.00	378.39
30.00	388.53
31.00	379.17
32.00	376.05
33.00	383.07
34.00	388.53
35.00	402.57
36.00	400.23
37.00	408.03
38.00	406.47
39.00	410.37
40.00	416.62
41.00	408.03
42.00	402.57
43.00	391.65
44.00	380.73
45.00	365.12
46.00	369.02
47.00	369.02
48.00	401.01
49.00	399.45
50.00	426.76
51.00	410.37
52.00	417.40
53.00	397.11
54.00	393.99
55.00	386.97
56.00	404.13
57.00	399.45
58.00	391.65
59.00	371.36
60.00	371.36
61.00	389.31
62.00	393.99
63.00	399.45
64.00	386.19
65.00	376.83
66.00	372.15
67.00	383.85
68.00	388.53
69.00	376.83
70.00	372.15
71.00	376.05
72.00	397.89
73.00	397.89
74.00	393.99
75.00	350.30
76.00	319.87
77.00	316.75
78.00	359.66
79.00	418.96
80.00	416.62
81.00	424.42
82.00	374.49
83.00	392.43
84.00	379.95
85.00	411.93
86.00	404.91
87.00	410.37
88.00	415.84
89.00	415.06
90.00	397.11
91.00	376.05
92.00	372.15
93.00	371.36
94.00	383.07
95.00	386.97
96.00	387.75
97.00	391.65
98.00	389.31
99.00	404.13
100.00	366.68
101.00	348.74
102.00	349.52
103.00	391.65
104.00	421.30
105.00	401.01
106.00	379.95
107.00	372.93
108.00	412.71
109.00	412.71
110.00	391.65
111.00	346.40
112.00	332.36
113.00	361.22
114.00	372.93
115.00	388.53
116.00	381.51
117.00	387.75
118.00	367.46
119.00	386.19
120.00	412.71
121.00	425.98
122.00	414.27
123.00	380.73
124.00	396.33
125.00	390.09
126.00	386.97
127.00	366.68
128.00	354.98
129.00	380.73
130.00	394.77
131.00	391.65
132.00	373.71
133.00	364.34
134.00	370.58
135.00	391.65
136.00	401.01
137.00	397.89
138.00	386.97
139.00	397.11
140.00	397.11
141.00	383.07
142.00	354.20
143.00	351.86
144.00	347.96
145.00	369.02
146.00	363.56
147.00	375.27
148.00	370.58
149.00	382.29
150.00	390.09
151.00	393.99
152.00	415.06
153.00	428.32
154.00	422.86
155.00	399.45
156.00	372.93
157.00	368.24
158.00	386.19
159.00	390.09
160.00	391.65
161.00	372.15
162.00	375.27
163.00	384.63
164.00	377.61
165.00	370.58
166.00	372.15
167.00	408.81
168.00	409.59
169.00	408.81
170.00	375.27
171.00	389.31
172.00	400.23
173.00	403.35
174.00	396.33
175.00	372.93
176.00	386.97
177.00	377.61
178.00	398.67
179.00	399.45
180.00	401.79
181.00	379.17
182.00	379.17
183.00	391.65
184.00	386.19
185.00	385.41
186.00	366.68
187.00	401.79
188.00	376.05
189.00	383.85
190.00	361.22
191.00	356.54
192.00	379.17
193.00	381.51
194.00	402.57
195.00	368.24
196.00	366.68
197.00	362.78
198.00	385.41
199.00	392.43
200.00	411.15
201.00	419.74
202.00	414.27
203.00	390.87
204.00	411.15
205.00	395.55
206.00	408.81
207.00	367.46
208.00	380.73
209.00	377.61
210.00	418.96
211.00	422.86
212.00	422.86
213.00	376.05
214.00	372.15
215.00	369.02
216.00	370.58
217.00	371.36
218.00	393.21
219.00	393.21
220.00	388.53
221.00	363.56
222.00	393.99
223.00	408.03
224.00	401.01
225.00	368.24
226.00	365.12
227.00	411.93
228.00	419.74
229.00	438.46
230.00	408.03
231.00	374.49
232.00	362.00
233.00	351.08
234.00	386.19
235.00	369.02
236.00	371.36
237.00	383.07
238.00	379.95
239.00	397.89
240.00	366.68
241.00	379.17
242.00	414.27
243.00	444.70
244.00	435.34
245.00	383.07
246.00	369.80
247.00	408.81
248.00	403.35
249.00	417.40
250.00	383.85
251.00	370.58
252.00	363.56
253.00	350.30
254.00	369.02
255.00	371.36
256.00	386.97
257.00	384.63
258.00	393.21
259.00	379.17
260.00	358.10
261.00	348.74
262.00	377.61
263.00	408.81
264.00	408.03
265.00	381.51
266.00	390.87
267.00	397.89
268.00	410.37
269.00	395.55
270.00	375.27
271.00	392.43
272.00	397.11
273.00	411.93
274.00	410.37
275.00	417.40
276.00	414.27
277.00	416.62
278.00	411.93
279.00	408.03
280.00	405.69
281.00	435.34
282.00	448.60
283.00	409.59
284.00	361.22
285.00	360.44
286.00	380.73
287.00	403.35
288.00	417.40
289.00	429.88
290.00	432.22
291.00	408.81
292.00	407.25
293.00	401.79
294.00	418.96
295.00	445.48
296.00	448.60
297.00	429.10
298.00	376.83
299.00	365.90
300.00	347.18
301.00	351.86
302.00	376.05
303.00	422.86
304.00	449.38
305.00	418.18
306.00	397.89
307.00	401.79
308.00	433.78
309.00	417.40
310.00	413.49
311.00	406.47
312.00	429.10
313.00	427.54
314.00	418.18
315.00	418.96
316.00	411.15
317.00	413.49
318.00	386.19
319.00	379.17
320.00	354.98
321.00	351.08
322.00	344.84
323.00	355.76
324.00	362.00
325.00	358.10
326.00	348.74
327.00	370.58
328.00	389.31
329.00	386.19
330.00	364.34
331.00	358.88
332.00	383.07
333.00	398.67
334.00	379.95
335.00	365.90
336.00	351.86
337.00	383.85
338.00	379.95
339.00	398.67
340.00	411.15
341.00	425.20
342.00	416.62
343.00	377.61
344.00	391.65
345.00	382.29
346.00	398.67
347.00	379.17
348.00	379.17
349.00	379.95
350.00	381.51
351.00	391.65
352.00	399.45
353.00	415.84
354.00	405.69
355.00	388.53
356.00	358.10
357.00	380.73
358.00	354.98
359.00	348.74
360.00	347.96
361.00	386.19
362.00	411.15
363.00	401.79
364.00	406.47
365.00	404.13
366.00	398.67
367.00	400.23
368.00	417.40
369.00	435.34
370.00	415.06
371.00	390.09
372.00	354.98
373.00	360.44
374.00	373.71
375.00	390.87
376.00	394.77
377.00	418.18
378.00	429.88
379.00	422.08
380.00	375.27
381.00	380.73
382.00	398.67
383.00	401.79
384.00	388.53
385.00	378.39
386.00	390.09
387.00	387.75
388.00	399.45
389.00	398.67
390.00	406.47
391.00	378.39
392.00	372.15
393.00	383.85
394.00	411.93
395.00	430.66
396.00	414.27
397.00	407.25
398.00	393.99
399.00	379.17
400.00	372.15
401.00	383.07
402.00	407.25
403.00	420.52
404.00	415.06
405.00	418.96
406.00	417.40
407.00	390.87
408.00	396.33
409.00	384.63
410.00	408.03
411.00	388.53
412.00	398.67
413.00	409.59
414.00	400.23
415.00	384.63
416.00	381.51
417.00	385.41
418.00	393.99
419.00	383.07
420.00	392.43
421.00	397.89
422.00	414.27
423.00	419.74
424.00	423.64
425.00	437.68
426.00	422.86
427.00	399.45
428.00	364.34
429.00	375.27
430.00	362.00
431.00	366.68
432.00	340.94
433.00	390.09
434.00	403.35
435.00	427.54
436.00	379.17
437.00	386.97
438.00	390.87
439.00	447.04
440.00	442.36
441.00	435.34
442.00	397.11
443.00	382.29
444.00	362.00
445.00	355.76
446.00	348.74
447.00	366.68
448.00	392.43
449.00	413.49
450.00	418.96
451.00	429.88
452.00	413.49
453.00	408.81
454.00	386.19
455.00	398.67
456.00	418.96
457.00	414.27
458.00	402.57
459.00	406.47
460.00	403.35
461.00	391.65
462.00	362.00
463.00	363.56
464.00	370.58
465.00	398.67
466.00	400.23
467.00	379.17
468.00	365.90
469.00	374.49
470.00	420.52
471.00	431.44
472.00	429.88
473.00	433.00
474.00	393.21
475.00	387.75
476.00	376.05
477.00	394.77
478.00	401.79
479.00	428.32
480.00	430.66
481.00	427.54
482.00	401.01
483.00	403.35
484.00	358.88
485.00	354.98
486.00	347.96
487.00	390.09
488.00	396.33
489.00	404.91
490.00	406.47
491.00	401.01
492.00	413.49
493.00	426.76
494.00	436.12
495.00	440.02
496.00	406.47
497.00	425.98
498.00	396.33
499.00	418.96
500.00	397.89
501.00	411.93
502.00	405.69
503.00	391.65
504.00	386.19
505.00	383.85
506.00	415.84
507.00	426.76
508.00	450.94
509.00	438.46
510.00	439.24
511.00	443.14
512.00	415.06
513.00	415.84
514.00	382.29
515.00	411.15
516.00	388.53
517.00	403.35
518.00	383.85
519.00	377.61
520.00	362.78
521.00	362.78
522.00	361.22
523.00	358.88
524.00	354.20
525.00	371.36
526.00	390.87
527.00	401.79
528.00	407.25
529.00	381.51
530.00	402.57
531.00	403.35
532.00	417.40
533.00	374.49
534.00	390.09
535.00	390.09
536.00	415.84
537.00	390.87
538.00	411.93
539.00	398.67
540.00	415.84
541.00	402.57
542.00	421.30
543.00	414.27
544.00	429.10
545.00	436.90
546.00	410.37
547.00	383.07
548.00	369.02
549.00	387.75
550.00	405.69
551.00	388.53
552.00	380.73
553.00	386.19
554.00	392.43
555.00	413.49
556.00	386.19
557.00	397.11
558.00	379.17
559.00	383.07
560.00	376.05
561.00	365.12
562.00	369.02
563.00	377.61
564.00	389.31
565.00	409.59
566.00	441.58
567.00	447.04
568.00	431.44
569.00	382.29
570.00	401.01
571.00	394.77
572.00	400.23
573.00	386.19
574.00	401.01
575.00	418.18
576.00	425.20
577.00	389.31
578.00	372.93
579.00	371.36
580.00	407.25
581.00	397.11
582.00	401.01
583.00	379.17
584.00	403.35
585.00	408.81
586.00	402.57
587.00	400.23
588.00	379.17
589.00	401.79
590.00	400.23
591.00	398.67
592.00	408.81
593.00	383.85
594.00	396.33
595.00	386.19
596.00	417.40
597.00	427.54
598.00	431.44
599.00	416.62
600.00	411.15
601.00	402.57
602.00	418.18
603.00	396.33
604.00	391.65
605.00	383.85
606.00	397.11
607.00	393.99
608.00	367.46
609.00	372.15
610.00	366.68
611.00	379.17
612.00	346.40
613.00	365.12
614.00	374.49
615.00	387.75
616.00	362.00
617.00	365.90
618.00	376.83
619.00	412.71
620.00	402.57
621.00	407.25
622.00	401.79
623.00	398.67
624.00	410.37
625.00	408.81
626.00	426.76
627.00	401.79
628.00	401.79
629.00	413.49
630.00	417.40
631.00	398.67
632.00	373.71
633.00	364.34
634.00	398.67
635.00	407.25
636.00	492.29
637.00	504.78
638.00	532.86
639.00	506.34
640.00	493.85
641.00	459.53
642.00	411.15
643.00	399.45
644.00	418.96
645.00	444.70
646.00	418.96
647.00	373.71
648.00	341.72
649.00	363.56
650.00	409.59
651.00	405.69
652.00	393.99
653.00	347.18
654.00	404.13
655.00	408.03
656.00	448.60
657.00	412.71
658.00	425.20
659.00	415.06
660.00	397.89
661.00	385.41
662.00	379.95
663.00	382.29
664.00	376.05
665.00	367.46
666.00	387.75
667.00	387.75
668.00	395.55
669.00	392.43
670.00	401.01
671.00	410.37
672.00	404.13
673.00	408.81
674.00	419.74
675.00	415.84
676.00	408.03
677.00	420.52
678.00	410.37
679.00	425.98
680.00	421.30
681.00	440.02
682.00	439.24
683.00	414.27
684.00	393.99
685.00	378.39
686.00	376.83
687.00	379.17
688.00	376.05
689.00	383.85
690.00	409.59
691.00	412.71
692.00	402.57
693.00	380.73
694.00	372.15
695.00	391.65
696.00	408.03
697.00	433.78
698.00	421.30
699.00	408.81
700.00	404.91
701.00	395.55
702.00	401.79
703.00	399.45
704.00	407.25
705.00	415.84
706.00	408.03
707.00	407.25
708.00	405.69
709.00	393.99
710.00	398.67
711.00	410.37
712.00	418.18
713.00	438.46
714.00	396.33
715.00	404.91
716.00	379.95
717.00	396.33
718.00	471.23
719.00	479.81
720.00	488.39
721.00	404.91
722.00	422.86
723.00	417.40
724.00	413.49
725.00	393.99
726.00	393.99
727.00	418.96
728.00	420.52
729.00	402.57
730.00	383.07
731.00	381.51
732.00	377.61
733.00	368.24
734.00	366.68
735.00	367.46
736.00	367.46
737.00	384.63
738.00	424.42
739.00	450.94
740.00	425.98
741.00	387.75
742.00	372.15
743.00	383.85
744.00	399.45
745.00	395.55
746.00	410.37
747.00	404.91
748.00	413.49
749.00	382.29
750.00	367.46
751.00	355.76
752.00	369.02
753.00	400.23
754.00	387.75
755.00	385.41
756.00	399.45
757.00	419.74
758.00	406.47
759.00	384.63
760.00	397.89
761.00	386.19
762.00	399.45
763.00	402.57
764.00	447.82
765.00	435.34
766.00	416.62
767.00	406.47
768.00	394.77
769.00	386.19
770.00	377.61
771.00	377.61
772.00	401.01
773.00	409.59
774.00	416.62
775.00	426.76
776.00	422.08
777.00	418.96
778.00	403.35
779.00	408.81
780.00	423.64
781.00	412.71
782.00	403.35
783.00	471.23
784.00	489.17
785.00	500.09
786.00	416.62
787.00	419.74
788.00	390.09
789.00	393.21
790.00	391.65
791.00	411.15
792.00	433.00
793.00	403.35
794.00	401.01
795.00	390.87
796.00	397.11
797.00	408.03
798.00	412.71
799.00	402.57
800.00	385.41
801.00	366.68
802.00	383.85
803.00	400.23
804.00	401.79
805.00	400.23
806.00	404.13
807.00	388.53
808.00	411.93
809.00	395.55
810.00	437.68
811.00	405.69
812.00	403.35
813.00	390.09
814.00	402.57
815.00	391.65
816.00	381.51
817.00	405.69
818.00	401.79
819.00	397.11
820.00	372.15
821.00	412.71
822.00	413.49
823.00	409.59
824.00	388.53
825.00	388.53
826.00	390.09
827.00	390.87
828.00	390.87
829.00	389.31
830.00	397.89
831.00	388.53
832.00	392.43
833.00	378.39
834.00	398.67
835.00	390.09
836.00	410.37
837.00	415.06
838.00	419.74
839.00	372.15
840.00	361.22
841.00	358.88
842.00	379.17
843.00	387.75
844.00	401.01
845.00	416.62
846.00	395.55
847.00	367.46
848.00	369.80
849.00	401.01
850.00	427.54
851.00	393.21
852.00	379.17
853.00	376.83
854.00	404.91
855.00	423.64
856.00	422.86
857.00	401.79
858.00	369.02
859.00	369.02
860.00	362.00
861.00	368.24
862.00	351.08
863.00	373.71
864.00	391.65
865.00	396.33
866.00	397.11
867.00	401.79
868.00	423.64
869.00	424.42
870.00	401.01
871.00	382.29
872.00	390.87
873.00	396.33
874.00	411.93
875.00	415.84
876.00	430.66
877.00	417.40
878.00	424.42
879.00	395.55
880.00	412.71
881.00	390.87
882.00	408.03
883.00	411.93
884.00	393.21
885.00	398.67
886.00	390.87
887.00	403.35
888.00	404.13
889.00	405.69
890.00	397.89
891.00	376.83
892.00	380.73
893.00	406.47
894.00	431.44
895.00	425.98
896.00	397.89
897.00	384.63
898.00	376.05
899.00	414.27
900.00	435.34
901.00	443.92
902.00	430.66
903.00	421.30
904.00	425.20
905.00	422.86
906.00	380.73
907.00	360.44
908.00	349.52
909.00	773.16
910.00	800.46
911.00	820.75
912.00	433.00
913.00	411.15
914.00	395.55
915.00	376.83
916.00	372.93
917.00	376.83
918.00	376.83
919.00	361.22
920.00	369.80
921.00	391.65
922.00	404.91
923.00	403.35
924.00	425.98
925.00	438.46
926.00	427.54
927.00	404.13
928.00	388.53
929.00	379.17
930.00	349.52
931.00	355.76
932.00	368.24
933.00	374.49
934.00	368.24
935.00	364.34
936.00	377.61
937.00	377.61
938.00	383.07
939.00	392.43
940.00	410.37
941.00	427.54
942.00	416.62
943.00	407.25
944.00	386.97
945.00	390.87
946.00	393.99
947.00	397.11
948.00	391.65
949.00	412.71
950.00	433.00
951.00	451.72
952.00	450.94
953.00	444.70
954.00	432.22
955.00	422.86
956.00	377.61
957.00	386.97
958.00	393.21
959.00	433.00
960.00	414.27
961.00	378.39
962.00	353.42
963.00	354.20
964.00	382.29
965.00	399.45
966.00	425.20
967.00	422.08
968.00	425.20
969.00	412.71
970.00	422.86
971.00	418.96
972.00	425.98
973.00	402.57
974.00	411.93
975.00	389.31
976.00	385.41
977.00	367.46
978.00	379.95
979.00	379.95
980.00	402.57
981.00	390.87
982.00	399.45
983.00	384.63
984.00	394.77
985.00	391.65
986.00	383.07
987.00	362.00
988.00	364.34
989.00	366.68
990.00	385.41
991.00	372.15
992.00	383.85
993.00	401.79
994.00	413.49
995.00	421.30
996.00	424.42
997.00	429.88
998.00	415.06
999.00	413.49
1000.00	413.49
1001.00	410.37
1002.00	373.71
1003.00	368.24
1004.00	386.97
1005.00	410.37
1006.00	405.69
1007.00	395.55
1008.00	404.13
1009.00	415.84
1010.00	424.42
1011.00	408.81
1012.00	421.30
1013.00	411.93
1014.00	443.14
1015.00	404.91
1016.00	390.87
1017.00	340.16
1018.00	372.93
1019.00	378.39
1020.00	375.27
1021.00	372.93
1022.00	379.17
1023.00	388.53
1024.00	392.43
1025.00	392.43
1026.00	422.08
1027.00	422.86
1028.00	422.08
1029.00	380.73
1030.00	354.98
1031.00	338.60
1032.00	369.02
1033.00	371.36
1034.00	394.77
1035.00	410.37
1036.00	432.22
1037.00	411.93
1038.00	388.53
1039.00	379.17
1040.00	372.15
1041.00	394.77
1042.00	402.57
1043.00	426.76
1044.00	413.49
1045.00	424.42
1046.00	408.03
1047.00	408.03
1048.00	368.24
1049.00	379.17
1050.00	367.46
1051.00	390.87
1052.00	397.89
1053.00	418.18
1054.00	418.18
1055.00	408.81
1056.00	403.35
1057.00	383.07
1058.00	381.51
1059.00	379.95
1060.00	404.13
1061.00	424.42
1062.00	408.81
1063.00	415.06
1064.00	390.87
1065.00	402.57
1066.00	379.95
1067.00	405.69
1068.00	433.78
1069.00	437.68
1070.00	399.45
1071.00	363.56
1072.00	365.90
1073.00	393.21
1074.00	413.49
1075.00	426.76
1076.00	404.13
1077.00	377.61
1078.00	372.93
1079.00	403.35
1080.00	397.89
1081.00	388.53
1082.00	375.27
1083.00	394.77
1084.00	392.43
1085.00	385.41
1086.00	405.69
1087.00	420.52
1088.00	422.08
1089.00	425.98
1090.00	406.47
1091.00	401.01
1092.00	375.27
1093.00	365.90
1094.00	389.31
1095.00	384.63
1096.00	386.97
1097.00	380.73
1098.00	392.43
1099.00	392.43
1100.00	393.99
1101.00	386.19
1102.00	403.35
1103.00	401.01
1104.00	423.64
1105.00	409.59
1106.00	391.65
1107.00	353.42
1108.00	395.55
1109.00	406.47
1110.00	404.91
1111.00	378.39
1112.00	380.73
1113.00	397.89
1114.00	371.36
1115.00	385.41
1116.00	367.46
1117.00	393.99
1118.00	393.21
1119.00	414.27
1120.00	415.06
1121.00	393.21
1122.00	408.81
1123.00	396.33
1124.00	404.13
1125.00	381.51
1126.00	381.51
1127.00	366.68
1128.00	378.39
1129.00	383.85
1130.00	412.71
1131.00	406.47
1132.00	408.81
1133.00	386.19
1134.00	377.61
1135.00	387.75
1136.00	401.79
1137.00	403.35
1138.00	402.57
1139.00	399.45
1140.00	416.62
1141.00	419.74
1142.00	399.45
1143.00	410.37
1144.00	410.37
1145.00	442.36
1146.00	445.48
1147.00	446.26
1148.00	442.36
1149.00	420.52
1150.00	411.93
1151.00	415.06
1152.00	413.49
1153.00	426.76
1154.00	409.59
1155.00	412.71
1156.00	386.97
1157.00	393.99
1158.00	372.15
1159.00	394.77
1160.00	400.23
1161.00	429.88
1162.00	420.52
1163.00	423.64
1164.00	422.08
1165.00	426.76
1166.00	438.46
1167.00	436.12
1168.00	406.47
1169.00	372.93
1170.00	374.49
1171.00	394.77
1172.00	433.00
1173.00	433.00
1174.00	436.12
1175.00	423.64
1176.00	428.32
1177.00	438.46
1178.00	435.34
1179.00	408.03
1180.00	392.43
1181.00	369.02
1182.00	386.97
1183.00	398.67
1184.00	425.20
1185.00	422.08
1186.00	428.32
1187.00	399.45
1188.00	401.79
1189.00	413.49
1190.00	418.18
1191.00	418.18
1192.00	382.29
1193.00	392.43
1194.00	404.91
1195.00	396.33
1196.00	411.93
1197.00	385.41
1198.00	382.29
1199.00	375.27
1200.00	407.25
1201.00	453.28
1202.00	450.94
1203.00	431.44
1204.00	408.81
1205.00	404.13
1206.00	391.65
1207.00	401.01
1208.00	421.30
1209.00	418.96
1210.00	425.98
1211.00	416.62
1212.00	435.34
1213.00	417.40
1214.00	393.21
1215.00	387.75
1216.00	401.79
1217.00	409.59
1218.00	419.74
1219.00	418.18
1220.00	399.45
1221.00	386.19
1222.00	379.17
1223.00	402.57
1224.00	389.31
1225.00	364.34
1226.00	353.42
1227.00	369.02
1228.00	391.65
1229.00	403.35
1230.00	417.40
1231.00	447.04
1232.00	464.21
1233.00	461.87
1234.00	447.82
1235.00	428.32
1236.00	418.96
1237.00	401.01
1238.00	405.69
1239.00	431.44
1240.00	435.34
1241.00	434.56
1242.00	391.65
1243.00	386.97
1244.00	389.31
1245.00	411.93
1246.00	419.74
1247.00	412.71
1248.00	406.47
1249.00	388.53
1250.00	404.13
1251.00	393.21
1252.00	395.55
1253.00	383.85
1254.00	377.61
1255.00	391.65
1256.00	377.61
1257.00	398.67
1258.00	379.95
1259.00	385.41
1260.00	373.71
1261.00	366.68
1262.00	390.09
1263.00	376.83
1264.00	399.45
1265.00	375.27
1266.00	397.11
1267.00	397.11
1268.00	425.20
1269.00	435.34
1270.00	420.52
1271.00	402.57
1272.00	385.41
1273.00	386.19
1274.00	377.61
1275.00	377.61
1276.00	401.79
1277.00	413.49
1278.00	423.64
1279.00	392.43
1280.00	386.97
1281.00	381.51
1282.00	383.85
1283.00	386.97
1284.00	394.77
1285.00	411.93
1286.00	420.52
1287.00	432.22
1288.00	453.28
1289.00	425.20
1290.00	390.87
1291.00	367.46
1292.00	376.83
1293.00	394.77
1294.00	408.03
1295.00	408.81
1296.00	397.11
1297.00	398.67
1298.00	408.03
1299.00	428.32
1300.00	408.81
1301.00	421.30
1302.00	394.77
1303.00	394.77
1304.00	379.17
1305.00	389.31
1306.00	402.57
1307.00	407.25
1308.00	431.44
1309.00	446.26
1310.00	438.46
1311.00	414.27
1312.00	383.07
1313.00	392.43
1314.00	401.01
1315.00	406.47
1316.00	397.89
1317.00	398.67
1318.00	391.65
1319.00	398.67
1320.00	389.31
1321.00	398.67
1322.00	410.37
1323.00	412.71
1324.00	443.92
1325.00	429.88
1326.00	424.42
1327.00	403.35
1328.00	422.86
1329.00	446.26
1330.00	430.66
1331.00	423.64
1332.00	404.91
1333.00	404.13
1334.00	386.19
1335.00	395.55
1336.00	386.97
1337.00	370.58
1338.00	373.71
1339.00	360.44
1340.00	360.44
1341.00	328.46
1342.00	361.22
1343.00	386.19
1344.00	393.99
1345.00	390.87
1346.00	375.27
1347.00	375.27
1348.00	379.95
1349.00	372.15
1350.00	397.11
1351.00	376.05
1352.00	383.85
1353.00	398.67
1354.00	400.23
1355.00	403.35
1356.00	390.09
1357.00	420.52
1358.00	437.68
1359.00	437.68
1360.00	447.04
1361.00	433.00
1362.00	432.22
1363.00	415.84
1364.00	448.60
1365.00	443.92
1366.00	417.40
1367.00	362.00
1368.00	375.27
1369.00	411.93
1370.00	454.84
1371.00	455.62
1372.00	442.36
1373.00	432.22
1374.00	427.54
1375.00	433.78
1376.00	461.87
1377.00	451.72
1378.00	422.08
1379.00	368.24
1380.00	357.32
1381.00	377.61
1382.00	389.31
1383.00	368.24
1384.00	370.58
1385.00	372.93
1386.00	404.91
1387.00	397.11
1388.00	390.09
1389.00	393.21
1390.00	404.13
1391.00	424.42
1392.00	404.13
1393.00	399.45
1394.00	371.36
1395.00	380.73
1396.00	359.66
1397.00	375.27
1398.00	379.95
1399.00	412.71
1400.00	429.88
1401.00	443.92
1402.00	452.50
1403.00	436.12
1404.00	433.00
1405.00	415.84
1406.00	424.42
1407.00	416.62
1408.00	408.03
1409.00	386.97
1410.00	404.13
1411.00	392.43
1412.00	431.44
1413.00	403.35
1414.00	397.89
1415.00	365.12
1416.00	381.51
1417.00	388.53
1418.00	401.79
1419.00	392.43
1420.00	408.81
1421.00	398.67
1422.00	407.25
1423.00	410.37
1424.00	416.62
1425.00	410.37
1426.00	408.03
1427.00	408.03
1428.00	384.63
1429.00	366.68
1430.00	365.90
1431.00	382.29
1432.00	395.55
1433.00	409.59
1434.00	418.96
1435.00	411.93
1436.00	393.21
1437.00	365.12
1438.00	367.46
1439.00	365.90
1440.00	399.45
1441.00	433.00
1442.00	450.16
1443.00	461.09
1444.00	430.66
1445.00	409.59
1446.00	370.58
1447.00	357.32
1448.00	385.41
1449.00	366.68
1450.00	371.36
1451.00	354.20
1452.00	391.65
1453.00	405.69
1454.00	426.76
1455.00	415.84
1456.00	429.88
1457.00	408.81
1458.00	450.16
1459.00	433.00
1460.00	425.20
1461.00	387.75
1462.00	397.89
1463.00	429.10
1464.00	426.76
1465.00	418.96
1466.00	377.61
1467.00	402.57
1468.00	409.59
1469.00	424.42
1470.00	417.40
1471.00	395.55
1472.00	406.47
1473.00	397.89
1474.00	410.37
1475.00	403.35
1476.00	418.96
1477.00	425.20
1478.00	438.46
1479.00	422.08
1480.00	413.49
1481.00	404.13
1482.00	386.19
1483.00	400.23
1484.00	391.65
1485.00	429.10
1486.00	411.15
1487.00	404.91
1488.00	390.09
1489.00	409.59
1490.00	414.27
1491.00	415.84
1492.00	409.59
1493.00	382.29
1494.00	361.22
1495.00	344.06
1496.00	384.63
1497.00	382.29
1498.00	421.30
1499.00	389.31
1500.00	410.37
1501.00	391.65
1502.00	405.69
1503.00	411.93
1504.00	414.27
1505.00	397.89
1506.00	381.51
1507.00	360.44
1508.00	386.19
1509.00	384.63
1510.00	384.63
1511.00	358.88
1512.00	369.80
1513.00	382.29
1514.00	409.59
1515.00	388.53
1516.00	381.51
1517.00	379.95
1518.00	398.67
1519.00	415.84
1520.00	404.91
1521.00	391.65
1522.00	389.31
1523.00	400.23
1524.00	418.18
1525.00	393.99
1526.00	382.29
1527.00	375.27
1528.00	399.45
1529.00	406.47
1530.00	404.91
1531.00	406.47
1532.00	405.69
1533.00	422.86
1534.00	403.35
1535.00	425.98
1536.00	398.67
1537.00	365.90
1538.00	337.82
1539.00	322.21
1540.00	363.56
1541.00	387.75
1542.00	425.20
1543.00	427.54
1544.00	425.98
1545.00	422.86
1546.00	415.84
1547.00	436.90
1548.00	426.76
1549.00	442.36
1550.00	403.35
1551.00	422.86
1552.00	404.13
1553.00	386.97
1554.00	346.40
1555.00	341.72
1556.00	380.73
1557.00	409.59
1558.00	410.37
1559.00	405.69
1560.00	382.29
1561.00	383.07
1562.00	385.41
1563.00	418.96
1564.00	429.88
1565.00	427.54
1566.00	415.06
1567.00	443.92
1568.00	426.76
1569.00	434.56
1570.00	422.08
1571.00	418.18
1572.00	382.29
1573.00	347.18
1574.00	354.98
1575.00	372.93
1576.00	386.97
1577.00	386.97
1578.00	409.59
1579.00	419.74
1580.00	411.15
1581.00	400.23
1582.00	415.06
1583.00	438.46
1584.00	422.08
1585.00	412.71
1586.00	388.53
1587.00	423.64
1588.00	418.96
1589.00	427.54
1590.00	406.47
1591.00	379.95
1592.00	378.39
1593.00	359.66
1594.00	373.71
1595.00	381.51
1596.00	403.35
1597.00	406.47
1598.00	383.07
1599.00	408.03
1600.00	389.31
1601.00	416.62
1602.00	399.45
1603.00	430.66
1604.00	418.96
1605.00	411.93
1606.00	401.79
1607.00	391.65
1608.00	356.54
1609.00	333.14
1610.00	334.70
1611.00	357.32
1612.00	384.63
1613.00	386.97
1614.00	396.33
1615.00	375.27
1616.00	386.19
1617.00	377.61
1618.00	367.46
1619.00	390.87
1620.00	415.84
1621.00	467.33
1622.00	438.46
1623.00	412.71
1624.00	396.33
1625.00	400.23
1626.00	397.11
1627.00	375.27
1628.00	376.83
1629.00	357.32
1630.00	353.42
1631.00	333.14
1632.00	349.52
1633.00	374.49
1634.00	408.81
1635.00	418.96
1636.00	379.95
1637.00	350.30
1638.00	324.55
1639.00	364.34
1640.00	386.97
1641.00	408.81
1642.00	394.77
1643.00	394.77
1644.00	392.43
1645.00	387.75
1646.00	365.90
1647.00	365.90
1648.00	374.49
1649.00	372.93
1650.00	392.43
1651.00	393.21
1652.00	413.49
1653.00	395.55
1654.00	410.37
1655.00	417.40
1656.00	423.64
1657.00	398.67
1658.00	386.97
1659.00	376.05
1660.00	417.40
1661.00	416.62
1662.00	428.32
1663.00	397.89
1664.00	379.17
1665.00	386.19
1666.00	383.07
1667.00	404.13
1668.00	383.85
1669.00	375.27
1670.00	387.75
1671.00	433.00
1672.00	425.20
1673.00	385.41
1674.00	344.84
1675.00	369.02
1676.00	382.29
1677.00	390.87
1678.00	389.31
1679.00	402.57
1680.00	421.30
1681.00	419.74
1682.00	401.01
1683.00	386.19
1684.00	374.49
1685.00	430.66
1686.00	537.54
1687.00	695.14
1688.00	890.18
1689.00	1028.28
1690.00	1089.91
1691.00	1085.23
1692.00	979.12
1693.00	878.48
1694.00	708.40
1695.00	603.08
1696.00	532.86
1697.00	491.51
1698.00	440.80
1699.00	447.04
1700.00	434.56
1701.00	448.60
1702.00	417.40
1703.00	407.25
1704.00	394.77
1705.00	370.58
1706.00	400.23
1707.00	393.99
1708.00	405.69
1709.00	362.78
1710.00	383.85
1711.00	376.05
1712.00	390.09
1713.00	365.12
1714.00	372.93
1715.00	369.80
1716.00	380.73
1717.00	376.05
1718.00	397.11
1719.00	403.35
1720.00	416.62
1721.00	402.57
1722.00	404.13
1723.00	397.89
1724.00	386.97
1725.00	378.39
1726.00	359.66
1727.00	360.44
1728.00	390.87
1729.00	403.35
1730.00	410.37
1731.00	393.21
1732.00	395.55
1733.00	386.19
1734.00	376.83
1735.00	387.75
1736.00	390.09
1737.00	409.59
1738.00	379.95
1739.00	377.61
1740.00	380.73
1741.00	415.06
1742.00	439.24
1743.00	427.54
1744.00	404.13
1745.00	406.47
1746.00	406.47
1747.00	409.59
1748.00	396.33
1749.00	376.83
1750.00	372.15
1751.00	385.41
1752.00	362.78
1753.00	362.78
1754.00	370.58
1755.00	409.59
1756.00	429.10
1757.00	403.35
1758.00	399.45
1759.00	400.23
1760.00	422.08
1761.00	426.76
1762.00	427.54
1763.00	439.24
1764.00	420.52
1765.00	401.01
1766.00	386.19
1767.00	412.71
1768.00	429.88
1769.00	413.49
1770.00	425.98
1771.00	433.00
1772.00	428.32
1773.00	399.45
1774.00	381.51
1775.00	371.36
1776.00	366.68
1777.00	363.56
1778.00	385.41
1779.00	400.23
1780.00	398.67
1781.00	379.95
1782.00	362.00
1783.00	358.88
1784.00	361.22
1785.00	365.90
1786.00	383.07
1787.00	387.75
1788.00	383.85
1789.00	379.95
1790.00	386.97
1791.00	418.18
1792.00	397.89
1793.00	384.63
1794.00	375.27
1795.00	369.80
1796.00	397.11
1797.00	371.36
1798.00	390.87
1799.00	362.00
1800.00	373.71
1801.00	379.17
1802.00	397.11
1803.00	408.81
1804.00	408.03
1805.00	418.18
1806.00	443.14
1807.00	434.56
1808.00	421.30
1809.00	386.97
1810.00	397.89
1811.00	399.45
1812.00	445.48
1813.00	443.92
1814.00	429.88
1815.00	389.31
1816.00	390.09
1817.00	404.13
1818.00	402.57
1819.00	383.85
1820.00	368.24
1821.00	339.38
1822.00	351.08
1823.00	356.54
1824.00	401.79
1825.00	438.46
1826.00	452.50
1827.00	450.16
1828.00	431.44
1829.00	413.49
1830.00	407.25
1831.00	386.97
1832.00	422.86
1833.00	411.15
1834.00	424.42
1835.00	397.89
1836.00	404.91
1837.00	386.97
1838.00	368.24
1839.00	366.68
1840.00	372.15
1841.00	370.58
1842.00	391.65
1843.00	390.09
1844.00	436.90
1845.00	390.87
1846.00	389.31
1847.00	375.27
1848.00	394.77
1849.00	382.29
1850.00	351.08
1851.00	344.06
1852.00	356.54
1853.00	379.95
1854.00	369.02
1855.00	361.22
1856.00	354.20
1857.00	369.02
1858.00	351.08
1859.00	366.68
1860.00	381.51
1861.00	397.89
1862.00	368.24
1863.00	373.71
1864.00	373.71
1865.00	390.09
1866.00	393.99
1867.00	404.13
1868.00	401.79
1869.00	375.27
1870.00	377.61
1871.00	365.12
1872.00	369.80
1873.00	358.88
1874.00	363.56
1875.00	382.29
1876.00	425.98
1877.00	437.68
1878.00	394.77
1879.00	351.08
1880.00	353.42
1881.00	368.24
1882.00	386.19
1883.00	377.61
1884.00	380.73
1885.00	401.01
1886.00	423.64
1887.00	417.40
1888.00	394.77
1889.00	389.31
1890.00	408.81
1891.00	396.33
1892.00	375.27
1893.00	393.99
1894.00	386.97
1895.00	385.41
1896.00	367.46
1897.00	400.23
1898.00	402.57
1899.00	393.99
1900.00	384.63
1901.00	385.41
1902.00	399.45
1903.00	398.67
1904.00	390.09
1905.00	394.77
1906.00	401.79
1907.00	403.35
1908.00	409.59
1909.00	407.25
1910.00	431.44
1911.00	403.35
1912.00	381.51
1913.00	377.61
1914.00	390.09
1915.00	416.62
1916.00	417.40
1917.00	394.77
1918.00	401.01
1919.00	387.75
1920.00	397.89
1921.00	386.19
1922.00	400.23
1923.00	392.43
1924.00	395.55
1925.00	379.95
1926.00	401.01
1927.00	380.73
1928.00	374.49
1929.00	391.65
1930.00	411.93
1931.00	435.34
1932.00	411.93
1933.00	396.33
1934.00	381.51
1935.00	401.01
1936.00	386.97
1937.00	390.09
1938.00	359.66
1939.00	365.12
1940.00	376.83
1941.00	389.31
1942.00	401.01
1943.00	388.53
1944.00	383.07
1945.00	378.39
1946.00	378.39
1947.00	383.85
1948.00	386.97
1949.00	400.23
1950.00	400.23
1951.00	382.29
1952.00	377.61
1953.00	378.39
1954.00	388.53
1955.00	400.23
1956.00	398.67
1957.00	414.27
1958.00	390.09
1959.00	366.68
1960.00	363.56
1961.00	374.49
1962.00	391.65
1963.00	374.49
1964.00	351.08
1965.00	347.96
1966.00	376.05
1967.00	379.17
1968.00	393.21
1969.00	393.99
1970.00	401.01
1971.00	399.45
1972.00	394.77
1973.00	412.71
1974.00	417.40
1975.00	422.86
1976.00	409.59
1977.00	397.11
1978.00	381.51
1979.00	382.29
1980.00	390.09
1981.00	383.85
1982.00	392.43
1983.00	371.36
1984.00	393.21
1985.00	388.53
1986.00	368.24
1987.00	385.41
1988.00	371.36
1989.00	401.01
1990.00	365.90
1991.00	381.51
1992.00	397.11
1993.00	397.11
1994.00	383.07
1995.00	347.18
1996.00	344.06
1997.00	376.05
1998.00	415.84
1999.00	436.12
2000.00	402.57
2001.00	398.67
2002.00	405.69
2003.00	421.30
2004.00	401.79
2005.00	393.21
2006.00	399.45
2007.00	399.45
2008.00	379.17
2009.00	388.53
2010.00	399.45
2011.00	379.17
2012.00	364.34
2013.00	368.24
2014.00	385.41
2015.00	379.17
2016.00	385.41
2017.00	395.55
2018.00	383.85
2019.00	379.17
2020.00	374.49
2021.00	397.89
2022.00	390.09
2023.00	380.73
2024.00	377.61
2025.00	354.20
2026.00	358.88
2027.00	362.00
2028.00	388.53
2029.00	388.53
2030.00	392.43
2031.00	408.03
2032.00	433.78
2033.00	426.76
2034.00	403.35
2035.00	379.95
2036.00	357.32
2037.00	382.29
2038.00	387.75
2039.00	396.33
2040.00	361.22
2041.00	357.32
2042.00	380.73
2043.00	405.69
2044.00	408.03
2045.00	379.95
2046.00	383.85
2047.00	421.30
>>>>>End Processed Spectral Data<<<<<
